# r[nm],d[nm],daligned[nm],U(d)[kj/mol],V(d)[e/nm],Uslab(d)[kJ/mol],UC(d)[kJ/mol],UK(d)[kJ/mol],UCl(d)[kJ/mol]
0.1975000,0.1975000,0.1975000,1633.2297411,-0.1443725,52.3120618,1633.2297411,1043.2702160,inf
0.2000000,0.2000000,0.2000000,1406.5756072,-0.1397040,46.1993778,1406.5756072,897.9542938,inf
0.2025000,0.2025000,0.2025000,1213.3893329,-0.1352634,40.8335631,1213.3893329,774.1839767,inf
0.2050000,0.2050000,0.2050000,1048.4339894,-0.1310351,36.1123508,1048.4339894,668.5793543,inf
0.2075000,0.2075000,0.2075000,907.3402098,-0.1270032,31.9467668,907.3402098,578.3207224,inf
0.2100000,0.2100000,0.2100000,786.4544660,-0.1231509,28.2591707,786.4544660,501.0503597,inf
0.2125000,0.2125000,0.2125000,682.7150233,-0.1194612,24.9822235,682.7150233,434.7926411,inf
0.2150000,0.2150000,0.2150000,593.5504075,-0.1159165,22.0582818,593.5504075,377.8888721,inf
0.2175000,0.2175000,0.2175000,516.7962570,-0.1124993,19.4390236,516.7962570,328.9438801,inf
0.2200000,0.2200000,0.2200000,450.6271833,-0.1091930,17.0851406,450.6271833,286.7819840,1854.0422686
0.2225000,0.2225000,0.2225000,393.5008281,-0.1059830,14.9656863,393.5008281,250.4105111,1619.9150057
0.2250000,0.2250000,0.2250000,344.1117621,-0.1028580,13.0567016,344.1117621,218.9895109,1417.2478908
0.2275000,0.2275000,0.2275000,301.3532776,-0.0998079,11.3391898,301.3532776,191.8066805,1241.4964792
0.2300000,0.2300000,0.2300000,264.2855296,-0.0968204,9.7969645,264.2855296,168.2567147,1088.8774590
0.2325000,0.2325000,0.2325000,232.1088640,-0.0938738,8.4149683,232.1088640,147.8243659,956.1697978
0.2350000,0.2350000,0.2350000,204.1414971,-0.0909314,7.1783939,204.1414971,130.0705123,840.6268683
0.2375000,0.2375000,0.2375000,179.8009316,-0.0879387,6.0725803,179.8009316,114.6205890,739.9027723
0.2400000,0.2400000,0.2400000,158.5885894,-0.0848285,5.0833989,158.5885894,101.1548652,651.9905021
0.2425000,0.2425000,0.2425000,140.0771425,-0.0815343,4.1977751,140.0771425,89.4002184,575.1700452
0.2450000,0.2450000,0.2450000,123.9000193,-0.0780079,3.4040818,123.9000193,79.1231836,507.9648737
0.2475000,0.2475000,0.2475000,109.7426011,-0.0742367,2.6922953,109.7426011,70.1240914,449.1054831
0.2500000,0.2500000,0.2500000,97.3347395,-0.0702528,2.0539341,97.3347395,62.2320983,397.4988121
0.2525000,0.2525000,0.2525000,86.4443553,-0.0661324,1.4818578,86.4443553,55.3008939,352.2025120
0.2550000,0.2550000,0.2550000,76.8719711,-0.0619832,0.9700059,76.8719711,49.2049165,312.4031794
0.2575000,0.2575000,0.2575000,68.4460523,-0.0579270,0.5131357,68.4460523,43.8360001,277.3978230
0.2600000,0.2600000,0.2600000,61.0190064,-0.0540801,0.1065951,61.0190064,39.1004771,246.5780083
0.2625000,0.2625000,0.2625000,54.4636873,-0.0505365,-0.2538519,54.4636873,34.9168024,219.4162810
0.2650000,0.2650000,0.2650000,48.6702844,-0.0473555,-0.5721425,48.6702844,31.2137265,195.4545945
0.2675000,0.2675000,0.2675000,43.5435603,-0.0445546,-0.8519824,43.5435603,27.9289474,174.2945248
0.2700000,0.2700000,0.2700000,39.0004742,-0.0421088,-1.0968762,39.0004742,25.0080949,155.5890587
0.2725000,0.2725000,0.2725000,34.9682502,-0.0399560,-1.3101338,34.9682502,22.4038921,139.0357110
0.2750000,0.2750000,0.2750000,31.3829057,-0.0380091,-1.4948650,31.3829057,20.0754152,124.3707135
0.2775000,0.2775000,0.2775000,28.1881718,-0.0361719,-1.6539710,28.1881718,17.9874507,111.3640325
0.2800000,0.2800000,0.2800000,25.3346810,-0.0343567,-1.7901378,25.3346810,16.1099685,99.8150380
0.2825000,0.2825000,0.2825000,22.7793022,-0.0324990,-1.9058340,22.7793022,14.4176746,89.5487104
0.2850000,0.2850000,0.2850000,20.4845625,-0.0305659,-2.0033124,20.4845625,12.8895534,80.4123253
0.2875000,0.2875000,0.2875000,18.4181517,-0.0285573,-2.0846171,18.4181517,11.5083110,72.2725611
0.2900000,0.2900000,0.2900000,16.5525041,-0.0265012,-2.1515934,16.5525041,10.2596981,65.0129652
0.2925000,0.2925000,0.2925000,14.8644101,-0.0244443,-2.2058998,14.8644101,9.1317657,58.5317019
0.2950000,0.2950000,0.2950000,13.3345801,-0.0224413,-2.2490222,13.3345801,8.1141472,52.7395235
0.2975000,0.2975000,0.2975000,11.9470985,-0.0205435,-2.2822878,11.9470985,7.1974532,47.5579433
0.3000000,0.3000000,0.3000000,10.6887712,-0.0187909,-2.3068795,10.6887712,6.3728340,42.9176326
0.3025000,0.3025000,0.3025000,9.5484288,-0.0172071,-2.3238498,9.5484288,5.6317336,38.7570780
0.3050000,0.3050000,0.3050000,8.5162713,-0.0157978,-2.3341339,8.5162713,4.9658242,35.0215160
0.3075000,0.3075000,0.3075000,7.5833309,-0.0145527,-2.3385617,7.5833309,4.3670864,31.6621241
0.3100000,0.3100000,0.3100000,6.7410998,-0.0134487,-2.3378694,6.7410998,3.8279728,28.6354145
0.3125000,0.3125000,0.3125000,5.9813346,-0.0124549,-2.3327097,5.9813346,3.3415860,25.9027699
0.3150000,0.3150000,0.3150000,5.2960254,-0.0115374,-2.3236607,5.2960254,2.9018150,23.4300823
0.3175000,0.3175000,0.3175000,4.6774839,-0.0106648,-2.3112346,4.6774839,2.5033943,21.1874654
0.3200000,0.3200000,0.3200000,4.1184944,-0.0098117,-2.2958851,4.1184944,2.1418833,19.1490141
0.3225000,0.3225000,0.3225000,3.6124677,-0.0089614,-2.2780139,3.6124677,1.8135841,17.2925609
0.3250000,0.3250000,0.3250000,3.1535509,-0.0081057,-2.2579765,3.1535509,1.5154280,15.5993732
0.3275000,0.3275000,0.3275000,2.7366705,-0.0072444,-2.2360879,2.7366705,1.2448552,14.0537477
0.3300000,0.3300000,0.3300000,2.3575091,-0.0063831,-2.2126266,2.3575091,0.9997045,12.6425051
0.3325000,0.3325000,0.3325000,2.0124320,-0.0055311,-2.1878394,2.0124320,0.7781180,11.3544273
0.3350000,0.3350000,0.3350000,1.6983882,-0.0046991,-2.1619444,1.6983882,0.5784593,10.1797062
0.3375000,0.3375000,0.3375000,1.4128049,-0.0038979,-2.1351346,1.4128049,0.3992473,9.1094692
0.3400000,0.3400000,0.3400000,1.1534888,-0.0031370,-2.1075807,1.1534888,0.2391033,8.1354269
0.3425000,0.3425000,0.3425000,0.9185374,-0.0024240,-2.0794335,0.9185374,0.0967129,7.2496616
0.3450000,0.3450000,0.3450000,0.7062636,-0.0017646,-2.0508262,0.7062636,-0.0291977,6.4445457
0.3475000,0.3475000,0.3475000,0.5151334,-0.0011621,-2.0218763,0.5151334,-0.1398738,5.7127601
0.3500000,0.3500000,0.3500000,0.3437169,-0.0006179,-1.9926875,0.3437169,-0.2365337,5.0473727
0.3525000,0.3525000,0.3525000,0.1906545,-0.0001316,-1.9633511,0.1906545,-0.3203646,4.4419354
0.3550000,0.3550000,0.3550000,0.0546337,0.0002986,-1.9339473,0.0546337,-0.3925145,3.8905661
0.3575000,0.3575000,0.3575000,-0.0656204,0.0006754,-1.9045467,-0.0656204,-0.4540841,3.3879969
0.3600000,0.3600000,0.3600000,-0.1713489,0.0010026,-1.8752111,-0.1713489,-0.5061178,2.9295816
0.3625000,0.3625000,0.3625000,-0.2637552,0.0012840,-1.8459944,-0.2637552,-0.5495981,2.5112672
0.3650000,0.3650000,0.3650000,-0.3439994,0.0015239,-1.8169440,-0.3439994,-0.5854403,2.1295401
0.3675000,0.3675000,0.3675000,-0.4131911,0.0017264,-1.7881008,-0.4131911,-0.6144911,1.7813575
0.3700000,0.3700000,0.3700000,-0.4723830,0.0018958,-1.7595004,-0.4723830,-0.6375275,1.4640737
0.3725000,0.3725000,0.3725000,-0.5225654,0.0020357,-1.7311734,-0.5225654,-0.6552583,1.1753680
0.3750000,0.3750000,0.3750000,-0.5646632,0.0021498,-1.7031463,-0.5646632,-0.6683265,0.9131781
0.3775000,0.3775000,0.3775000,-0.5995334,0.0022414,-1.6754415,-0.5995334,-0.6773124,0.6756423
0.3800000,0.3800000,0.3800000,-0.6279654,0.0023134,-1.6480780,-0.6279654,-0.6827377,0.4610512
0.3825000,0.3825000,0.3825000,-0.6506818,0.0023686,-1.6210719,-0.6506818,-0.6850694,0.2678116
0.3850000,0.3850000,0.3850000,-0.6683410,0.0024092,-1.5944364,-0.6683410,-0.6847246,0.0944190
0.3875000,0.3875000,0.3875000,-0.6815400,0.0024373,-1.5681823,-0.6815400,-0.6820743,-0.0605598
0.3900000,0.3900000,0.3900000,-0.6908180,0.0024548,-1.5423185,-0.6908180,-0.6774480,-0.1984964
0.3925000,0.3925000,0.3925000,-0.6966606,0.0024632,-1.5168515,-0.6966606,-0.6711374,-0.3207056
0.3950000,0.3950000,0.3950000,-0.6995034,0.0024639,-1.4917866,-0.6995034,-0.6634004,-0.4284456
0.3975000,0.3975000,0.3975000,-0.6997362,0.0024582,-1.4671273,-0.6997362,-0.6544646,-0.5229172
0.4000000,0.4000000,0.4000000,-0.6977072,0.0024470,-1.4428759,-0.6977072,-0.6445301,-0.6052606
0.4025000,0.4025000,0.4025000,-0.6937266,0.0024313,-1.4190335,-0.6937266,-0.6337729,-0.6765536
0.4050000,0.4050000,0.4050000,-0.6880703,0.0024119,-1.3956001,-0.6880703,-0.6223475,-0.7378095
0.4075000,0.4075000,0.4075000,-0.6809830,0.0023893,-1.3725748,-0.6809830,-0.6103890,-0.7899759
0.4100000,0.4100000,0.4100000,-0.6726818,0.0023642,-1.3499560,-0.6726818,-0.5980155,-0.8339348
0.4125000,0.4125000,0.4125000,-0.6633586,0.0023370,-1.3277412,-0.6633586,-0.5853300,-0.8705030
0.4150000,0.4150000,0.4150000,-0.6531830,0.0023082,-1.3059276,-0.6531830,-0.5724223,-0.9004341
0.4175000,0.4175000,0.4175000,-0.6423045,0.0022781,-1.2845115,-0.6423045,-0.5593700,-0.9244207
0.4200000,0.4200000,0.4200000,-0.6308549,0.0022470,-1.2634891,-0.6308549,-0.5462406,-0.9430966
0.4225000,0.4225000,0.4225000,-0.6189498,0.0022152,-1.2428559,-0.6189498,-0.5330922,-0.9570406
0.4250000,0.4250000,0.4250000,-0.6066908,0.0021829,-1.2226071,-0.6066908,-0.5199748,-0.9667796
0.4275000,0.4275000,0.4275000,-0.5941670,0.0021503,-1.2027378,-0.5941670,-0.5069311,-0.9727919
0.4300000,0.4300000,0.4300000,-0.5814561,0.0021175,-1.1832428,-0.5814561,-0.4939977,-0.9755107
0.4325000,0.4325000,0.4325000,-0.5686260,0.0020847,-1.1641164,-0.5686260,-0.4812056,-0.9753278
0.4350000,0.4350000,0.4350000,-0.5557355,0.0020520,-1.1453532,-0.5557355,-0.4685807,-0.9725968
0.4375000,0.4375000,0.4375000,-0.5428360,0.0020195,-1.1269473,-0.5428360,-0.4561449,-0.9676360
0.4400000,0.4400000,0.4400000,-0.5299716,0.0019872,-1.1088929,-0.5299716,-0.4439162,-0.9607320
0.4425000,0.4425000,0.4425000,-0.5171803,0.0019552,-1.0911840,-0.5171803,-0.4319092,-0.9521421
0.4450000,0.4450000,0.4450000,-0.5044950,0.0019235,-1.0738146,-0.5044950,-0.4201358,-0.9420970
0.4475000,0.4475000,0.4475000,-0.4919434,0.0018923,-1.0567786,-0.4919434,-0.4086052,-0.9308035
0.4500000,0.4500000,0.4500000,-0.4795492,0.0018615,-1.0400700,-0.4795492,-0.3973246,-0.9184465
0.4525000,0.4525000,0.4525000,-0.4673321,0.0018312,-1.0236827,-0.4673321,-0.3862991,-0.9051912
0.4550000,0.4550000,0.4550000,-0.4553089,0.0018014,-1.0076107,-0.4553089,-0.3755323,-0.8911851
0.4575000,0.4575000,0.4575000,-0.4434930,0.0017720,-0.9918478,-0.4434930,-0.3650261,-0.8765594
0.4600000,0.4600000,0.4600000,-0.4318957,0.0017432,-0.9763882,-0.4318957,-0.3547814,-0.8614312
0.4625000,0.4625000,0.4625000,-0.4205257,0.0017149,-0.9612259,-0.4205257,-0.3447980,-0.8459044
0.4650000,0.4650000,0.4650000,-0.4093900,0.0016871,-0.9463549,-0.4093900,-0.3350745,-0.8300709
0.4675000,0.4675000,0.4675000,-0.3984936,0.0016598,-0.9317695,-0.3984936,-0.3256092,-0.8140125
0.4700000,0.4700000,0.4700000,-0.3878402,0.0016331,-0.9174638,-0.3878402,-0.3163992,-0.7978013
0.4725000,0.4725000,0.4725000,-0.3774322,0.0016069,-0.9034321,-0.3774322,-0.3074414,-0.7815010
0.4750000,0.4750000,0.4750000,-0.3672705,0.0015812,-0.8896689,-0.3672705,-0.2987321,-0.7651674
0.4775000,0.4775000,0.4775000,-0.3573555,0.0015560,-0.8761686,-0.3573555,-0.2902671,-0.7488499
0.4800000,0.4800000,0.4800000,-0.3476864,0.0015313,-0.8629257,-0.3476864,-0.2820421,-0.7325913
0.4825000,0.4825000,0.4825000,-0.3382618,0.0015071,-0.8499349,-0.3382618,-0.2740524,-0.7164293
0.4850000,0.4850000,0.4850000,-0.3290795,0.0014834,-0.8371908,-0.3290795,-0.2662930,-0.7003965
0.4875000,0.4875000,0.4875000,-0.3201369,0.0014601,-0.8246883,-0.3201369,-0.2587590,-0.6845210
0.4900000,0.4900000,0.4900000,-0.3114310,0.0014374,-0.8124224,-0.3114310,-0.2514452,-0.6688272
0.4925000,0.4925000,0.4925000,-0.3029583,0.0014151,-0.8003879,-0.3029583,-0.2443462,-0.6533358
0.4950000,0.4950000,0.4950000,-0.2947149,0.0013933,-0.7885800,-0.2947149,-0.2374568,-0.6380644
0.4975000,0.4975000,0.4975000,-0.2866968,0.0013719,-0.7769939,-0.2866968,-0.2307716,-0.6230278
0.5000000,0.5000000,0.5000000,-0.2788997,0.0013509,-0.7656248,-0.2788997,-0.2242854,-0.6082384
0.5025000,0.5025000,0.5025000,-0.2713191,0.0013304,-0.7544681,-0.2713191,-0.2179927,-0.5937063
0.5050000,0.5050000,0.5050000,-0.2639504,0.0013103,-0.7435193,-0.2639504,-0.2118883,-0.5794396
0.5075000,0.5075000,0.5075000,-0.2567889,0.0012905,-0.7327740,-0.2567889,-0.2059670,-0.5654447
0.5100000,0.5100000,0.5100000,-0.2498299,0.0012712,-0.7222277,-0.2498299,-0.2002235,-0.5517264
0.5125000,0.5125000,0.5125000,-0.2430685,0.0012523,-0.7118762,-0.2430685,-0.1946529,-0.5382881
0.5150000,0.5150000,0.5150000,-0.2364998,0.0012338,-0.7017155,-0.2364998,-0.1892500,-0.5251321
0.5175000,0.5175000,0.5175000,-0.2301191,0.0012156,-0.6917413,-0.2301191,-0.1840100,-0.5122596
0.5200000,0.5200000,0.5200000,-0.2239215,0.0011978,-0.6819497,-0.2239215,-0.1789279,-0.4996707
0.5225000,0.5225000,0.5225000,-0.2179022,0.0011803,-0.6723368,-0.2179022,-0.1739992,-0.4873648
0.5250000,0.5250000,0.5250000,-0.2120565,0.0011632,-0.6628988,-0.2120565,-0.1692191,-0.4753406
0.5275000,0.5275000,0.5275000,-0.2063796,0.0011464,-0.6536319,-0.2063796,-0.1645831,-0.4635962
0.5300000,0.5300000,0.5300000,-0.2008669,0.0011299,-0.6445326,-0.2008669,-0.1600869,-0.4521290
0.5325000,0.5325000,0.5325000,-0.1955138,0.0011138,-0.6355971,-0.1955138,-0.1557261,-0.4409360
0.5350000,0.5350000,0.5350000,-0.1903159,0.0010979,-0.6268222,-0.1903159,-0.1514966,-0.4300138
0.5375000,0.5375000,0.5375000,-0.1852688,0.0010824,-0.6182043,-0.1852688,-0.1473942,-0.4193587
0.5400000,0.5400000,0.5400000,-0.1803680,0.0010672,-0.6097401,-0.1803680,-0.1434150,-0.4089666
0.5425000,0.5425000,0.5425000,-0.1756094,0.0010522,-0.6014263,-0.1756094,-0.1395552,-0.3988333
0.5450000,0.5450000,0.5450000,-0.1709888,0.0010376,-0.5932599,-0.1709888,-0.1358109,-0.3889542
0.5475000,0.5475000,0.5475000,-0.1665021,0.0010232,-0.5852376,-0.1665021,-0.1321786,-0.3793248
0.5500000,0.5500000,0.5500000,-0.1621455,0.0010091,-0.5773565,-0.1621455,-0.1286548,-0.3699401
0.5525000,0.5525000,0.5525000,-0.1579151,0.0009953,-0.5696135,-0.1579151,-0.1252359,-0.3607955
0.5550000,0.5550000,0.5550000,-0.1538070,0.0009817,-0.5620058,-0.1538070,-0.1219187,-0.3518857
0.5575000,0.5575000,0.5575000,-0.1498177,0.0009683,-0.5545306,-0.1498177,-0.1187000,-0.3432060
0.5600000,0.5600000,0.5600000,-0.1459435,0.0009552,-0.5471851,-0.1459435,-0.1155767,-0.3347511
0.5625000,0.5625000,0.5625000,-0.1421810,0.0009424,-0.5399665,-0.1421810,-0.1125456,-0.3265161
0.5650000,0.5650000,0.5650000,-0.1385269,0.0009297,-0.5328723,-0.1385269,-0.1096040,-0.3184959
0.5675000,0.5675000,0.5675000,-0.1349777,0.0009174,-0.5258999,-0.1349777,-0.1067488,-0.3106854
0.5700000,0.5700000,0.5700000,-0.1315305,0.0009052,-0.5190467,-0.1315305,-0.1039775,-0.3030796
0.5725000,0.5725000,0.5725000,-0.1281819,0.0008932,-0.5123103,-0.1281819,-0.1012874,-0.2956737
0.5750000,0.5750000,0.5750000,-0.1249292,0.0008815,-0.5056883,-0.1249292,-0.0986758,-0.2884625
0.5775000,0.5775000,0.5775000,-0.1217692,0.0008700,-0.4991783,-0.1217692,-0.0961403,-0.2814414
0.5800000,0.5800000,0.5800000,-0.1186992,0.0008586,-0.4927781,-0.1186992,-0.0936784,-0.2746054
0.5825000,0.5825000,0.5825000,-0.1157165,0.0008475,-0.4864854,-0.1157165,-0.0912879,-0.2679499
0.5850000,0.5850000,0.5850000,-0.1128184,0.0008366,-0.4802981,-0.1128184,-0.0889665,-0.2614702
0.5875000,0.5875000,0.5875000,-0.1100022,0.0008258,-0.4742139,-0.1100022,-0.0867119,-0.2551617
0.5900000,0.5900000,0.5900000,-0.1072656,0.0008153,-0.4682308,-0.1072656,-0.0845222,-0.2490199
0.5925000,0.5925000,0.5925000,-0.1046060,0.0008049,-0.4623468,-0.1046060,-0.0823952,-0.2430406
0.5950000,0.5950000,0.5950000,-0.1020212,0.0007947,-0.4565598,-0.1020212,-0.0803290,-0.2372192
0.5975000,0.5975000,0.5975000,-0.0995087,0.0007847,-0.4508679,-0.0995087,-0.0783217,-0.2315516
0.6000000,0.6000000,0.6000000,-0.0970665,0.0007748,-0.4452693,-0.0970665,-0.0763714,-0.2260337
0.6025000,0.6025000,0.6025000,-0.0946924,0.0007651,-0.4397620,-0.0946924,-0.0744763,-0.2206614
0.6050000,0.6050000,0.6050000,-0.0923843,0.0007556,-0.4343443,-0.0923843,-0.0726347,-0.2154308
0.6075000,0.6075000,0.6075000,-0.0901402,0.0007462,-0.4290143,-0.0901402,-0.0708450,-0.2103380
0.6100000,0.6100000,0.6100000,-0.0879581,0.0007370,-0.4237703,-0.0879581,-0.0691055,-0.2053792
0.6125000,0.6125000,0.6125000,-0.0858363,0.0007280,-0.4186107,-0.0858363,-0.0674147,-0.2005508
0.6150000,0.6150000,0.6150000,-0.0837728,0.0007190,-0.4135337,-0.0837728,-0.0657711,-0.1958492
0.6175000,0.6175000,0.6175000,-0.0817659,0.0007103,-0.4085378,-0.0817659,-0.0641732,-0.1912709
0.6200000,0.6200000,0.6200000,-0.0798138,0.0007017,-0.4036214,-0.0798138,-0.0626195,-0.1868124
0.6225000,0.6225000,0.6225000,-0.0779150,0.0006932,-0.3987829,-0.0779150,-0.0611088,-0.1824706
0.6250000,0.6250000,0.6250000,-0.0760679,0.0006848,-0.3940208,-0.0760679,-0.0596397,-0.1782421
0.6275000,0.6275000,0.6275000,-0.0742708,0.0006766,-0.3893337,-0.0742708,-0.0582110,-0.1741237
0.6300000,0.6300000,0.6300000,-0.0725222,0.0006686,-0.3847200,-0.0725222,-0.0568214,-0.1701126
0.6325000,0.6325000,0.6325000,-0.0708208,0.0006606,-0.3801784,-0.0708208,-0.0554697,-0.1662055
0.6350000,0.6350000,0.6350000,-0.0691652,0.0006528,-0.3757076,-0.0691652,-0.0541547,-0.1623998
0.6375000,0.6375000,0.6375000,-0.0675538,0.0006451,-0.3713060,-0.0675538,-0.0528754,-0.1586925
0.6400000,0.6400000,0.6400000,-0.0659855,0.0006375,-0.3669725,-0.0659855,-0.0516307,-0.1550809
0.6425000,0.6425000,0.6425000,-0.0644590,0.0006301,-0.3627057,-0.0644590,-0.0504195,-0.1515623
0.6450000,0.6450000,0.6450000,-0.0629730,0.0006227,-0.3585044,-0.0629730,-0.0492408,-0.1481342
0.6475000,0.6475000,0.6475000,-0.0615263,0.0006155,-0.3543674,-0.0615263,-0.0480937,-0.1447940
0.6500000,0.6500000,0.6500000,-0.0601178,0.0006084,-0.3502933,-0.0601178,-0.0469772,-0.1415393
0.6525000,0.6525000,0.6525000,-0.0587463,0.0006014,-0.3462811,-0.0587463,-0.0458904,-0.1383677
0.6550000,0.6550000,0.6550000,-0.0574107,0.0005945,-0.3423296,-0.0574107,-0.0448324,-0.1352769
0.6575000,0.6575000,0.6575000,-0.0561101,0.0005877,-0.3384377,-0.0561101,-0.0438023,-0.1322647
0.6600000,0.6600000,0.6600000,-0.0548434,0.0005810,-0.3346042,-0.0548434,-0.0427994,-0.1293288
0.6625000,0.6625000,0.6625000,-0.0536095,0.0005744,-0.3308281,-0.0536095,-0.0418227,-0.1264672
0.6650000,0.6650000,0.6650000,-0.0524076,0.0005680,-0.3271084,-0.0524076,-0.0408717,-0.1236778
0.6675000,0.6675000,0.6675000,-0.0512368,0.0005616,-0.3234439,-0.0512368,-0.0399454,-0.1209586
0.6700000,0.6700000,0.6700000,-0.0500960,0.0005553,-0.3198336,-0.0500960,-0.0390432,-0.1183077
0.6725000,0.6725000,0.6725000,-0.0489845,0.0005491,-0.3162767,-0.0489845,-0.0381644,-0.1157232
0.6750000,0.6750000,0.6750000,-0.0479014,0.0005430,-0.3127721,-0.0479014,-0.0373083,-0.1132032
0.6775000,0.6775000,0.6775000,-0.0468460,0.0005370,-0.3093188,-0.0468460,-0.0364742,-0.1107460
0.6800000,0.6800000,0.6800000,-0.0458173,0.0005310,-0.3059160,-0.0458173,-0.0356615,-0.1083498
0.6825000,0.6825000,0.6825000,-0.0448147,0.0005252,-0.3025626,-0.0448147,-0.0348696,-0.1060130
0.6850000,0.6850000,0.6850000,-0.0438374,0.0005195,-0.2992580,-0.0438374,-0.0340978,-0.1037340
0.6875000,0.6875000,0.6875000,-0.0428846,0.0005138,-0.2960010,-0.0428846,-0.0333457,-0.1015111
0.6900000,0.6900000,0.6900000,-0.0419558,0.0005082,-0.2927910,-0.0419558,-0.0326127,-0.0993429
0.6925000,0.6925000,0.6925000,-0.0410502,0.0005027,-0.2896271,-0.0410502,-0.0318981,-0.0972279
0.6950000,0.6950000,0.6950000,-0.0401672,0.0004973,-0.2865084,-0.0401672,-0.0312015,-0.0951645
0.6975000,0.6975000,0.6975000,-0.0393061,0.0004919,-0.2834342,-0.0393061,-0.0305224,-0.0931515
0.7000000,0.7000000,0.7000000,-0.0384663,0.0004867,-0.2804037,-0.0384663,-0.0298602,-0.0911874
0.7025000,0.7025000,0.7025000,-0.0376472,0.0004815,-0.2774160,-0.0376472,-0.0292146,-0.0892709
0.7050000,0.7050000,0.7050000,-0.0368483,0.0004764,-0.2744706,-0.0368483,-0.0285849,-0.0874007
0.7075000,0.7075000,0.7075000,-0.0360690,0.0004713,-0.2715665,-0.0360690,-0.0279709,-0.0855756
0.7100000,0.7100000,0.7100000,-0.0353088,0.0004663,-0.2687031,-0.0353088,-0.0273720,-0.0837944
0.7125000,0.7125000,0.7125000,-0.0345670,0.0004614,-0.2658798,-0.0345670,-0.0267879,-0.0820559
0.7150000,0.7150000,0.7150000,-0.0338433,0.0004566,-0.2630957,-0.0338433,-0.0262181,-0.0803590
0.7175000,0.7175000,0.7175000,-0.0331371,0.0004518,-0.2603503,-0.0331371,-0.0256622,-0.0787025
0.7200000,0.7200000,0.7200000,-0.0324480,0.0004471,-0.2576428,-0.0324480,-0.0251198,-0.0770853
0.7225000,0.7225000,0.7225000,-0.0317754,0.0004425,-0.2549726,-0.0317754,-0.0245906,-0.0755065
0.7250000,0.7250000,0.7250000,-0.0311190,0.0004379,-0.2523392,-0.0311190,-0.0240742,-0.0739650
0.7275000,0.7275000,0.7275000,-0.0304783,0.0004334,-0.2497417,-0.0304783,-0.0235703,-0.0724599
0.7300000,0.7300000,0.7300000,-0.0298528,0.0004289,-0.2471797,-0.0298528,-0.0230785,-0.0709901
0.7325000,0.7325000,0.7325000,-0.0292422,0.0004246,-0.2446526,-0.0292422,-0.0225985,-0.0695547
0.7350000,0.7350000,0.7350000,-0.0286461,0.0004202,-0.2421597,-0.0286461,-0.0221300,-0.0681528
0.7375000,0.7375000,0.7375000,-0.0280640,0.0004160,-0.2397004,-0.0280640,-0.0216726,-0.0667836
0.7400000,0.7400000,0.7400000,-0.0274956,0.0004117,-0.2372743,-0.0274956,-0.0212261,-0.0654462
0.7425000,0.7425000,0.7425000,-0.0269406,0.0004076,-0.2348808,-0.0269406,-0.0207901,-0.0641398
0.7450000,0.7450000,0.7450000,-0.0263985,0.0004035,-0.2325193,-0.0263985,-0.0203645,-0.0628635
0.7475000,0.7475000,0.7475000,-0.0258691,0.0003994,-0.2301892,-0.0258691,-0.0199488,-0.0616166
0.7500000,0.7500000,0.7500000,-0.0253520,0.0003955,-0.2278901,-0.0253520,-0.0195429,-0.0603983
0.7525000,0.7525000,0.7525000,-0.0248469,0.0003915,-0.2256215,-0.0248469,-0.0191465,-0.0592080
0.7550000,0.7550000,0.7550000,-0.0243534,0.0003876,-0.2233829,-0.0243534,-0.0187594,-0.0580447
0.7575000,0.7575000,0.7575000,-0.0238713,0.0003838,-0.2211737,-0.0238713,-0.0183812,-0.0569080
0.7600000,0.7600000,0.7600000,-0.0234002,0.0003800,-0.2189935,-0.0234002,-0.0180118,-0.0557970
0.7625000,0.7625000,0.7625000,-0.0229400,0.0003763,-0.2168418,-0.0229400,-0.0176509,-0.0547112
0.7650000,0.7650000,0.7650000,-0.0224902,0.0003726,-0.2147181,-0.0224902,-0.0172983,-0.0536498
0.7675000,0.7675000,0.7675000,-0.0220506,0.0003690,-0.2126221,-0.0220506,-0.0169539,-0.0526123
0.7700000,0.7700000,0.7700000,-0.0216211,0.0003654,-0.2105532,-0.0216211,-0.0166173,-0.0515981
0.7725000,0.7725000,0.7725000,-0.0212012,0.0003618,-0.2085110,-0.0212012,-0.0162883,-0.0506065
0.7750000,0.7750000,0.7750000,-0.0207908,0.0003583,-0.2064951,-0.0207908,-0.0159669,-0.0496371
0.7775000,0.7775000,0.7775000,-0.0203896,0.0003549,-0.2045051,-0.0203896,-0.0156527,-0.0486892
0.7800000,0.7800000,0.7800000,-0.0199973,0.0003515,-0.2025405,-0.0199973,-0.0153457,-0.0477623
0.7825000,0.7825000,0.7825000,-0.0196139,0.0003481,-0.2006010,-0.0196139,-0.0150455,-0.0468559
0.7850000,0.7850000,0.7850000,-0.0192389,0.0003448,-0.1986861,-0.0192389,-0.0147522,-0.0459694
0.7875000,0.7875000,0.7875000,-0.0188723,0.0003415,-0.1967955,-0.0188723,-0.0144653,-0.0451025
0.7900000,0.7900000,0.7900000,-0.0185138,0.0003383,-0.1949288,-0.0185138,-0.0141849,-0.0442545
0.7925000,0.7925000,0.7925000,-0.0181632,0.0003351,-0.1930856,-0.0181632,-0.0139107,-0.0434250
0.7950000,0.7950000,0.7950000,-0.0178203,0.0003319,-0.1912655,-0.0178203,-0.0136426,-0.0426136
0.7975000,0.7975000,0.7975000,-0.0174849,0.0003288,-0.1894682,-0.0174849,-0.0133805,-0.0418198
0.8000000,0.8000000,0.8000000,-0.0171569,0.0003257,-0.1876933,-0.0171569,-0.0131241,-0.0410432
0.8025000,0.8025000,0.8025000,-0.0168360,0.0003227,-0.1859405,-0.0168360,-0.0128734,-0.0402834
0.8050000,0.8050000,0.8050000,-0.0165220,0.0003197,-0.1842094,-0.0165220,-0.0126282,-0.0395399
0.8075000,0.8075000,0.8075000,-0.0162149,0.0003167,-0.1824998,-0.0162149,-0.0123883,-0.0388123
0.8100000,0.8100000,0.8100000,-0.0159144,0.0003138,-0.1808112,-0.0159144,-0.0121536,-0.0381004
0.8125000,0.8125000,0.8125000,-0.0156203,0.0003109,-0.1791433,-0.0156203,-0.0119241,-0.0374036
0.8150000,0.8150000,0.8150000,-0.0153326,0.0003080,-0.1774959,-0.0153326,-0.0116995,-0.0367217
0.8175000,0.8175000,0.8175000,-0.0150510,0.0003052,-0.1758686,-0.0150510,-0.0114798,-0.0360542
0.8200000,0.8200000,0.8200000,-0.0147755,0.0003024,-0.1742612,-0.0147755,-0.0112649,-0.0354008
0.8225000,0.8225000,0.8225000,-0.0145058,0.0002997,-0.1726732,-0.0145058,-0.0110545,-0.0347612
0.8250000,0.8250000,0.8250000,-0.0142418,0.0002970,-0.1711045,-0.0142418,-0.0108487,-0.0341351
0.8275000,0.8275000,0.8275000,-0.0139834,0.0002943,-0.1695546,-0.0139834,-0.0106472,-0.0335221
0.8300000,0.8300000,0.8300000,-0.0137304,0.0002916,-0.1680235,-0.0137304,-0.0104500,-0.0329219
0.8325000,0.8325000,0.8325000,-0.0134827,0.0002890,-0.1665107,-0.0134827,-0.0102571,-0.0323342
0.8350000,0.8350000,0.8350000,-0.0132403,0.0002864,-0.1650160,-0.0132403,-0.0100682,-0.0317588
0.8375000,0.8375000,0.8375000,-0.0130029,0.0002838,-0.1635391,-0.0130029,-0.0098833,-0.0311952
0.8400000,0.8400000,0.8400000,-0.0127705,0.0002813,-0.1620798,-0.0127705,-0.0097023,-0.0306434
0.8425000,0.8425000,0.8425000,-0.0125429,0.0002788,-0.1606378,-0.0125429,-0.0095251,-0.0301029
0.8450000,0.8450000,0.8450000,-0.0123200,0.0002763,-0.1592128,-0.0123200,-0.0093516,-0.0295735
0.8475000,0.8475000,0.8475000,-0.0121017,0.0002739,-0.1578046,-0.0121017,-0.0091817,-0.0290549
0.8500000,0.8500000,0.8500000,-0.0118879,0.0002715,-0.1564130,-0.0118879,-0.0090154,-0.0285470
0.8525000,0.8525000,0.8525000,-0.0116784,0.0002691,-0.1550377,-0.0116784,-0.0088525,-0.0280494
0.8550000,0.8550000,0.8550000,-0.0114733,0.0002667,-0.1536784,-0.0114733,-0.0086930,-0.0275619
0.8575000,0.8575000,0.8575000,-0.0112724,0.0002644,-0.1523350,-0.0112724,-0.0085368,-0.0270843
0.8600000,0.8600000,0.8600000,-0.0110755,0.0002621,-0.1510072,-0.0110755,-0.0083838,-0.0266163
0.8625000,0.8625000,0.8625000,-0.0108827,0.0002598,-0.1496948,-0.0108827,-0.0082340,-0.0261578
0.8650000,0.8650000,0.8650000,-0.0106938,0.0002576,-0.1483975,-0.0106938,-0.0080872,-0.0257085
0.8675000,0.8675000,0.8675000,-0.0105086,0.0002554,-0.1471152,-0.0105086,-0.0079434,-0.0252682
0.8700000,0.8700000,0.8700000,-0.0103272,0.0002532,-0.1458476,-0.0103272,-0.0078026,-0.0248367
0.8725000,0.8725000,0.8725000,-0.0101495,0.0002510,-0.1445945,-0.0101495,-0.0076646,-0.0244138
0.8750000,0.8750000,0.8750000,-0.0099753,0.0002488,-0.1433557,-0.0099753,-0.0075294,-0.0239993
0.8775000,0.8775000,0.8775000,-0.0098045,0.0002467,-0.1421310,-0.0098045,-0.0073969,-0.0235930
0.8800000,0.8800000,0.8800000,-0.0096372,0.0002446,-0.1409203,-0.0096372,-0.0072671,-0.0231947
0.8825000,0.8825000,0.8825000,-0.0094732,0.0002425,-0.1397232,-0.0094732,-0.0071399,-0.0228043
0.8850000,0.8850000,0.8850000,-0.0093124,0.0002405,-0.1385396,-0.0093124,-0.0070152,-0.0224216
0.8875000,0.8875000,0.8875000,-0.0091548,0.0002385,-0.1373694,-0.0091548,-0.0068931,-0.0220463
0.8900000,0.8900000,0.8900000,-0.0090004,0.0002365,-0.1362123,-0.0090004,-0.0067734,-0.0216784
0.8925000,0.8925000,0.8925000,-0.0088489,0.0002345,-0.1350682,-0.0088489,-0.0066560,-0.0213177
0.8950000,0.8950000,0.8950000,-0.0087004,0.0002325,-0.1339369,-0.0087004,-0.0065410,-0.0209640
0.8975000,0.8975000,0.8975000,-0.0085548,0.0002306,-0.1328181,-0.0085548,-0.0064283,-0.0206171
0.9000000,0.9000000,0.9000000,-0.0084121,0.0002287,-0.1317118,-0.0084121,-0.0063177,-0.0202769
0.9025000,0.9025000,0.9025000,-0.0082721,0.0002268,-0.1306177,-0.0082721,-0.0062094,-0.0199433
0.9050000,0.9050000,0.9050000,-0.0081348,0.0002249,-0.1295357,-0.0081348,-0.0061032,-0.0196161
0.9075000,0.9075000,0.9075000,-0.0080002,0.0002230,-0.1284656,-0.0080002,-0.0059990,-0.0192952
0.9100000,0.9100000,0.9100000,-0.0078681,0.0002212,-0.1274073,-0.0078681,-0.0058969,-0.0189804
0.9125000,0.9125000,0.9125000,-0.0077386,0.0002194,-0.1263606,-0.0077386,-0.0057968,-0.0186716
0.9150000,0.9150000,0.9150000,-0.0076116,0.0002176,-0.1253252,-0.0076116,-0.0056986,-0.0183687
0.9175000,0.9175000,0.9175000,-0.0074870,0.0002158,-0.1243012,-0.0074870,-0.0056023,-0.0180716
0.9200000,0.9200000,0.9200000,-0.0073648,0.0002141,-0.1232883,-0.0073648,-0.0055079,-0.0177800
0.9225000,0.9225000,0.9225000,-0.0072449,0.0002123,-0.1222864,-0.0072449,-0.0054153,-0.0174940
0.9250000,0.9250000,0.9250000,-0.0071272,0.0002106,-0.1212953,-0.0071272,-0.0053244,-0.0172133
0.9275000,0.9275000,0.9275000,-0.0070118,0.0002089,-0.1203149,-0.0070118,-0.0052353,-0.0169379
0.9300000,0.9300000,0.9300000,-0.0068986,0.0002072,-0.1193450,-0.0068986,-0.0051479,-0.0166677
0.9325000,0.9325000,0.9325000,-0.0067875,0.0002055,-0.1183855,-0.0067875,-0.0050622,-0.0164024
0.9350000,0.9350000,0.9350000,-0.0066785,0.0002039,-0.1174363,-0.0066785,-0.0049781,-0.0161422
0.9375000,0.9375000,0.9375000,-0.0065715,0.0002023,-0.1164971,-0.0065715,-0.0048956,-0.0158867
0.9400000,0.9400000,0.9400000,-0.0064665,0.0002007,-0.1155680,-0.0064665,-0.0048147,-0.0156360
0.9425000,0.9425000,0.9425000,-0.0063634,0.0001991,-0.1146487,-0.0063634,-0.0047353,-0.0153900
0.9450000,0.9450000,0.9450000,-0.0062623,0.0001975,-0.1137392,-0.0062623,-0.0046573,-0.0151484
0.9475000,0.9475000,0.9475000,-0.0061631,0.0001959,-0.1128392,-0.0061631,-0.0045809,-0.0149113
0.9500000,0.9500000,0.9500000,-0.0060656,0.0001944,-0.1119488,-0.0060656,-0.0045059,-0.0146785
0.9525000,0.9525000,0.9525000,-0.0059700,0.0001929,-0.1110676,-0.0059700,-0.0044322,-0.0144500
0.9550000,0.9550000,0.9550000,-0.0058761,0.0001913,-0.1101957,-0.0058761,-0.0043600,-0.0142257
0.9575000,0.9575000,0.9575000,-0.0057839,0.0001899,-0.1093329,-0.0057839,-0.0042891,-0.0140054
0.9600000,0.9600000,0.9600000,-0.0056935,0.0001884,-0.1084791,-0.0056935,-0.0042195,-0.0137891
0.9625000,0.9625000,0.9625000,-0.0056046,0.0001869,-0.1076341,-0.0056046,-0.0041512,-0.0135768
0.9650000,0.9650000,0.9650000,-0.0055174,0.0001855,-0.1067979,-0.0055174,-0.0040841,-0.0133682
0.9675000,0.9675000,0.9675000,-0.0054318,0.0001840,-0.1059703,-0.0054318,-0.0040183,-0.0131635
0.9700000,0.9700000,0.9700000,-0.0053477,0.0001826,-0.1051513,-0.0053477,-0.0039537,-0.0129623
0.9725000,0.9725000,0.9725000,-0.0052651,0.0001812,-0.1043407,-0.0052651,-0.0038903,-0.0127648
0.9750000,0.9750000,0.9750000,-0.0051840,0.0001798,-0.1035383,-0.0051840,-0.0038280,-0.0125709
0.9775000,0.9775000,0.9775000,-0.0051044,0.0001784,-0.1027442,-0.0051044,-0.0037669,-0.0123803
0.9800000,0.9800000,0.9800000,-0.0050261,0.0001771,-0.1019582,-0.0050261,-0.0037068,-0.0121932
0.9825000,0.9825000,0.9825000,-0.0049493,0.0001757,-0.1011802,-0.0049493,-0.0036479,-0.0120093
0.9850000,0.9850000,0.9850000,-0.0048739,0.0001744,-0.1004101,-0.0048739,-0.0035900,-0.0118288
0.9875000,0.9875000,0.9875000,-0.0047998,0.0001731,-0.0996478,-0.0047998,-0.0035332,-0.0116513
0.9900000,0.9900000,0.9900000,-0.0047270,0.0001717,-0.0988932,-0.0047270,-0.0034774,-0.0114771
0.9925000,0.9925000,0.9925000,-0.0046554,0.0001705,-0.0981462,-0.0046554,-0.0034226,-0.0113058
0.9950000,0.9950000,0.9950000,-0.0045852,0.0001692,-0.0974067,-0.0045852,-0.0033688,-0.0111376
0.9975000,0.9975000,0.9975000,-0.0045162,0.0001679,-0.0966746,-0.0045162,-0.0033159,-0.0109723
1.0000000,1.0000000,1.0000000,-0.0044483,0.0001666,-0.0959498,-0.0044483,-0.0032640,-0.0108099
1.0025000,1.0025000,1.0025000,-0.0043817,0.0001654,-0.0952322,-0.0043817,-0.0032130,-0.0106503
1.0050000,1.0050000,1.0050000,-0.0043162,0.0001642,-0.0945218,-0.0043162,-0.0031629,-0.0104934
1.0075000,1.0075000,1.0075000,-0.0042519,0.0001629,-0.0938185,-0.0042519,-0.0031137,-0.0103393
1.0100000,1.0100000,1.0100000,-0.0041887,0.0001617,-0.0931221,-0.0041887,-0.0030654,-0.0101878
1.0125000,1.0125000,1.0125000,-0.0041266,0.0001605,-0.0924325,-0.0041266,-0.0030179,-0.0100389
1.0150000,1.0150000,1.0150000,-0.0040655,0.0001594,-0.0917498,-0.0040655,-0.0029713,-0.0098926
1.0175000,1.0175000,1.0175000,-0.0040055,0.0001582,-0.0910738,-0.0040055,-0.0029255,-0.0097488
1.0200000,1.0200000,1.0200000,-0.0039466,0.0001570,-0.0904044,-0.0039466,-0.0028804,-0.0096074
1.0225000,1.0225000,1.0225000,-0.0038886,0.0001559,-0.0897415,-0.0038886,-0.0028362,-0.0094685
1.0250000,1.0250000,1.0250000,-0.0038317,0.0001547,-0.0890851,-0.0038317,-0.0027927,-0.0093319
1.0275000,1.0275000,1.0275000,-0.0037757,0.0001536,-0.0884351,-0.0037757,-0.0027500,-0.0091976
1.0300000,1.0300000,1.0300000,-0.0037206,0.0001525,-0.0877914,-0.0037206,-0.0027080,-0.0090655
1.0325000,1.0325000,1.0325000,-0.0036665,0.0001514,-0.0871540,-0.0036665,-0.0026668,-0.0089357
1.0350000,1.0350000,1.0350000,-0.0036133,0.0001503,-0.0865227,-0.0036133,-0.0026263,-0.0088081
1.0375000,1.0375000,1.0375000,-0.0035611,0.0001492,-0.0858975,-0.0035611,-0.0025864,-0.0086827
1.0400000,1.0400000,1.0400000,-0.0035096,0.0001481,-0.0852782,-0.0035096,-0.0025473,-0.0085593
1.0425000,1.0425000,1.0425000,-0.0034591,0.0001471,-0.0846650,-0.0034591,-0.0025088,-0.0084379
1.0450000,1.0450000,1.0450000,-0.0034094,0.0001460,-0.0840576,-0.0034094,-0.0024710,-0.0083186
1.0475000,1.0475000,1.0475000,-0.0033605,0.0001450,-0.0834560,-0.0033605,-0.0024338,-0.0082013
1.0500000,1.0500000,1.0500000,-0.0033125,0.0001439,-0.0828601,-0.0033125,-0.0023972,-0.0080859
1.0525000,1.0525000,1.0525000,-0.0032652,0.0001429,-0.0822699,-0.0032652,-0.0023613,-0.0079725
1.0550000,1.0550000,1.0550000,-0.0032188,0.0001419,-0.0816853,-0.0032188,-0.0023260,-0.0078609
1.0575000,1.0575000,1.0575000,-0.0031731,0.0001409,-0.0811062,-0.0031731,-0.0022913,-0.0077511
1.0600000,1.0600000,1.0600000,-0.0031281,0.0001399,-0.0805325,-0.0031281,-0.0022572,-0.0076431
1.0625000,1.0625000,1.0625000,-0.0030839,0.0001389,-0.0799643,-0.0030839,-0.0022236,-0.0075369
1.0650000,1.0650000,1.0650000,-0.0030405,0.0001379,-0.0794014,-0.0030405,-0.0021906,-0.0074325
1.0675000,1.0675000,1.0675000,-0.0029977,0.0001370,-0.0788438,-0.0029977,-0.0021582,-0.0073297
1.0700000,1.0700000,1.0700000,-0.0029557,0.0001360,-0.0782913,-0.0029557,-0.0021263,-0.0072286
1.0725000,1.0725000,1.0725000,-0.0029143,0.0001351,-0.0777441,-0.0029143,-0.0020949,-0.0071291
1.0750000,1.0750000,1.0750000,-0.0028736,0.0001341,-0.0772019,-0.0028736,-0.0020641,-0.0070313
1.0775000,1.0775000,1.0775000,-0.0028336,0.0001332,-0.0766647,-0.0028336,-0.0020337,-0.0069350
1.0800000,1.0800000,1.0800000,-0.0027942,0.0001323,-0.0761326,-0.0027942,-0.0020039,-0.0068403
1.0825000,1.0825000,1.0825000,-0.0027554,0.0001313,-0.0756053,-0.0027554,-0.0019746,-0.0067471
1.0850000,1.0850000,1.0850000,-0.0027173,0.0001304,-0.0750829,-0.0027173,-0.0019457,-0.0066554
1.0875000,1.0875000,1.0875000,-0.0026798,0.0001295,-0.0745653,-0.0026798,-0.0019174,-0.0065652
1.0900000,1.0900000,1.0900000,-0.0026429,0.0001287,-0.0740524,-0.0026429,-0.0018894,-0.0064764
1.0925000,1.0925000,1.0925000,-0.0026066,0.0001278,-0.0735443,-0.0026066,-0.0018620,-0.0063890
1.0950000,1.0950000,1.0950000,-0.0025708,0.0001269,-0.0730408,-0.0025708,-0.0018350,-0.0063030
1.0975000,1.0975000,1.0975000,-0.0025357,0.0001260,-0.0725418,-0.0025357,-0.0018084,-0.0062183
1.1000000,1.1000000,1.1000000,-0.0025011,0.0001252,-0.0720474,-0.0025011,-0.0017823,-0.0061350
1.1025000,1.1025000,1.1025000,-0.0024670,0.0001243,-0.0715575,-0.0024670,-0.0017566,-0.0060530
1.1050000,1.1050000,1.1050000,-0.0024335,0.0001235,-0.0710721,-0.0024335,-0.0017313,-0.0059723
1.1075000,1.1075000,1.1075000,-0.0024005,0.0001226,-0.0705910,-0.0024005,-0.0017064,-0.0058929
1.1100000,1.1100000,1.1100000,-0.0023681,0.0001218,-0.0701142,-0.0023681,-0.0016820,-0.0058147
1.1125000,1.1125000,1.1125000,-0.0023361,0.0001210,-0.0696417,-0.0023361,-0.0016579,-0.0057377
1.1150000,1.1150000,1.1150000,-0.0023047,0.0001202,-0.0691735,-0.0023047,-0.0016342,-0.0056619
1.1175000,1.1175000,1.1175000,-0.0022737,0.0001194,-0.0687094,-0.0022737,-0.0016109,-0.0055873
1.1200000,1.1200000,1.1200000,-0.0022433,0.0001186,-0.0682495,-0.0022433,-0.0015880,-0.0055139
1.1225000,1.1225000,1.1225000,-0.0022133,0.0001178,-0.0677937,-0.0022133,-0.0015654,-0.0054416
1.1250000,1.1250000,1.1250000,-0.0021837,0.0001170,-0.0673419,-0.0021837,-0.0015432,-0.0053704
1.1275000,1.1275000,1.1275000,-0.0021547,0.0001162,-0.0668942,-0.0021547,-0.0015213,-0.0053003
1.1300000,1.1300000,1.1300000,-0.0021261,0.0001155,-0.0664504,-0.0021261,-0.0014998,-0.0052313
1.1325000,1.1325000,1.1325000,-0.0020979,0.0001147,-0.0660105,-0.0020979,-0.0014787,-0.0051633
1.1350000,1.1350000,1.1350000,-0.0020701,0.0001139,-0.0655745,-0.0020701,-0.0014578,-0.0050964
1.1375000,1.1375000,1.1375000,-0.0020428,0.0001132,-0.0651423,-0.0020428,-0.0014373,-0.0050305
1.1400000,1.1400000,1.1400000,-0.0020159,0.0001124,-0.0647139,-0.0020159,-0.0014171,-0.0049656
1.1425000,1.1425000,1.1425000,-0.0019894,0.0001117,-0.0642893,-0.0019894,-0.0013973,-0.0049017
1.1450000,1.1450000,1.1450000,-0.0019634,0.0001110,-0.0638684,-0.0019634,-0.0013777,-0.0048388
1.1475000,1.1475000,1.1475000,-0.0019377,0.0001103,-0.0634511,-0.0019377,-0.0013585,-0.0047768
1.1500000,1.1500000,1.1500000,-0.0019124,0.0001095,-0.0630375,-0.0019124,-0.0013396,-0.0047158
1.1525000,1.1525000,1.1525000,-0.0018875,0.0001088,-0.0626275,-0.0018875,-0.0013209,-0.0046556
1.1550000,1.1550000,1.1550000,-0.0018630,0.0001081,-0.0622210,-0.0018630,-0.0013026,-0.0045964
1.1575000,1.1575000,1.1575000,-0.0018388,0.0001074,-0.0618180,-0.0018388,-0.0012845,-0.0045381
1.1600000,1.1600000,1.1600000,-0.0018150,0.0001067,-0.0614185,-0.0018150,-0.0012667,-0.0044806
1.1625000,1.1625000,1.1625000,-0.0017916,0.0001060,-0.0610224,-0.0017916,-0.0012492,-0.0044240
1.1650000,1.1650000,1.1650000,-0.0017685,0.0001054,-0.0606298,-0.0017685,-0.0012319,-0.0043682
1.1675000,1.1675000,1.1675000,-0.0017458,0.0001047,-0.0602404,-0.0017458,-0.0012150,-0.0043133
1.1700000,1.1700000,1.1700000,-0.0017234,0.0001040,-0.0598545,-0.0017234,-0.0011982,-0.0042592
1.1725000,1.1725000,1.1725000,-0.0017014,0.0001033,-0.0594718,-0.0017014,-0.0011818,-0.0042058
1.1750000,1.1750000,1.1750000,-0.0016796,0.0001027,-0.0590923,-0.0016796,-0.0011656,-0.0041533
1.1775000,1.1775000,1.1775000,-0.0016582,0.0001020,-0.0587161,-0.0016582,-0.0011496,-0.0041015
1.1800000,1.1800000,1.1800000,-0.0016371,0.0001014,-0.0583431,-0.0016371,-0.0011339,-0.0040505
1.1825000,1.1825000,1.1825000,-0.0016164,0.0001007,-0.0579732,-0.0016164,-0.0011184,-0.0040003
1.1850000,1.1850000,1.1850000,-0.0015959,0.0001001,-0.0576065,-0.0015959,-0.0011032,-0.0039508
1.1875000,1.1875000,1.1875000,-0.0015757,0.0000995,-0.0572428,-0.0015757,-0.0010882,-0.0039020
1.1900000,1.1900000,1.1900000,-0.0015559,0.0000989,-0.0568822,-0.0015559,-0.0010734,-0.0038539
1.1925000,1.1925000,1.1925000,-0.0015363,0.0000982,-0.0565246,-0.0015363,-0.0010588,-0.0038065
1.1950000,1.1950000,1.1950000,-0.0015170,0.0000976,-0.0561700,-0.0015170,-0.0010445,-0.0037598
1.1975000,1.1975000,1.1975000,-0.0014980,0.0000970,-0.0558184,-0.0014980,-0.0010304,-0.0037138
1.2000000,1.2000000,1.2000000,-0.0014793,0.0000964,-0.0554697,-0.0014793,-0.0010165,-0.0036684
1.2025000,1.2025000,1.2025000,-0.0014608,0.0000958,-0.0551239,-0.0014608,-0.0010028,-0.0036237
1.2050000,1.2050000,1.2050000,-0.0014426,0.0000952,-0.0547810,-0.0014426,-0.0009893,-0.0035797
1.2075000,1.2075000,1.2075000,-0.0014247,0.0000946,-0.0544409,-0.0014247,-0.0009760,-0.0035362
1.2100000,1.2100000,1.2100000,-0.0014070,0.0000940,-0.0541036,-0.0014070,-0.0009629,-0.0034934
1.2125000,1.2125000,1.2125000,-0.0013896,0.0000934,-0.0537691,-0.0013896,-0.0009500,-0.0034512
1.2150000,1.2150000,1.2150000,-0.0013724,0.0000929,-0.0534373,-0.0013724,-0.0009373,-0.0034096
1.2175000,1.2175000,1.2175000,-0.0013555,0.0000923,-0.0531083,-0.0013555,-0.0009248,-0.0033686
1.2200000,1.2200000,1.2200000,-0.0013389,0.0000917,-0.0527820,-0.0013389,-0.0009125,-0.0033282
1.2225000,1.2225000,1.2225000,-0.0013224,0.0000912,-0.0524583,-0.0013224,-0.0009003,-0.0032884
1.2250000,1.2250000,1.2250000,-0.0013062,0.0000906,-0.0521373,-0.0013062,-0.0008883,-0.0032491
1.2275000,1.2275000,1.2275000,-0.0012903,0.0000901,-0.0518189,-0.0012903,-0.0008765,-0.0032104
1.2300000,1.2300000,1.2300000,-0.0012745,0.0000895,-0.0515031,-0.0012745,-0.0008649,-0.0031722
1.2325000,1.2325000,1.2325000,-0.0012590,0.0000890,-0.0511898,-0.0012590,-0.0008535,-0.0031345
1.2350000,1.2350000,1.2350000,-0.0012437,0.0000884,-0.0508791,-0.0012437,-0.0008422,-0.0030974
1.2375000,1.2375000,1.2375000,-0.0012286,0.0000879,-0.0505709,-0.0012286,-0.0008311,-0.0030608
1.2400000,1.2400000,1.2400000,-0.0012138,0.0000874,-0.0502652,-0.0012138,-0.0008201,-0.0030247
1.2425000,1.2425000,1.2425000,-0.0011991,0.0000868,-0.0499619,-0.0011991,-0.0008093,-0.0029892
1.2450000,1.2450000,1.2450000,-0.0011847,0.0000863,-0.0496611,-0.0011847,-0.0007987,-0.0029541
1.2475000,1.2475000,1.2475000,-0.0011704,0.0000858,-0.0493627,-0.0011704,-0.0007882,-0.0029195
1.2500000,1.2500000,1.2500000,-0.0011564,0.0000853,-0.0490667,-0.0011564,-0.0007779,-0.0028853
1.2525000,1.2525000,1.2525000,-0.0011425,0.0000848,-0.0487730,-0.0011425,-0.0007677,-0.0028517
1.2550000,1.2550000,1.2550000,-0.0011289,0.0000843,-0.0484817,-0.0011289,-0.0007577,-0.0028185
1.2575000,1.2575000,1.2575000,-0.0011154,0.0000838,-0.0481926,-0.0011154,-0.0007478,-0.0027858
1.2600000,1.2600000,1.2600000,-0.0011021,0.0000833,-0.0479059,-0.0011021,-0.0007380,-0.0027535
1.2625000,1.2625000,1.2625000,-0.0010890,0.0000828,-0.0476215,-0.0010890,-0.0007284,-0.0027216
1.2650000,1.2650000,1.2650000,-0.0010761,0.0000823,-0.0473393,-0.0010761,-0.0007190,-0.0026902
1.2675000,1.2675000,1.2675000,-0.0010634,0.0000818,-0.0470593,-0.0010634,-0.0007096,-0.0026593
1.2700000,1.2700000,1.2700000,-0.0010508,0.0000813,-0.0467815,-0.0010508,-0.0007004,-0.0026287
1.2725000,1.2725000,1.2725000,-0.0010384,0.0000808,-0.0465060,-0.0010384,-0.0006914,-0.0025986
1.2750000,1.2750000,1.2750000,-0.0010262,0.0000804,-0.0462325,-0.0010262,-0.0006824,-0.0025688
1.2775000,1.2775000,1.2775000,-0.0010142,0.0000799,-0.0459612,-0.0010142,-0.0006736,-0.0025395
1.2800000,1.2800000,1.2800000,-0.0010023,0.0000794,-0.0456921,-0.0010023,-0.0006649,-0.0025106
1.2825000,1.2825000,1.2825000,-0.0009906,0.0000790,-0.0454250,-0.0009906,-0.0006564,-0.0024821
1.2850000,1.2850000,1.2850000,-0.0009790,0.0000785,-0.0451600,-0.0009790,-0.0006479,-0.0024539
1.2875000,1.2875000,1.2875000,-0.0009676,0.0000780,-0.0448971,-0.0009676,-0.0006396,-0.0024261
1.2900000,1.2900000,1.2900000,-0.0009563,0.0000776,-0.0446362,-0.0009563,-0.0006314,-0.0023987
1.2925000,1.2925000,1.2925000,-0.0009452,0.0000771,-0.0443773,-0.0009452,-0.0006233,-0.0023717
1.2950000,1.2950000,1.2950000,-0.0009343,0.0000767,-0.0441204,-0.0009343,-0.0006153,-0.0023450
1.2975000,1.2975000,1.2975000,-0.0009235,0.0000763,-0.0438655,-0.0009235,-0.0006075,-0.0023187
1.3000000,1.3000000,1.3000000,-0.0009128,0.0000758,-0.0436126,-0.0009128,-0.0005997,-0.0022927
1.3025000,1.3025000,1.3025000,-0.0009023,0.0000754,-0.0433616,-0.0009023,-0.0005921,-0.0022671
1.3050000,1.3050000,1.3050000,-0.0008919,0.0000749,-0.0431125,-0.0008919,-0.0005845,-0.0022418
1.3075000,1.3075000,1.3075000,-0.0008817,0.0000745,-0.0428653,-0.0008817,-0.0005771,-0.0022168
1.3100000,1.3100000,1.3100000,-0.0008716,0.0000741,-0.0426201,-0.0008716,-0.0005698,-0.0021922
1.3125000,1.3125000,1.3125000,-0.0008617,0.0000737,-0.0423766,-0.0008617,-0.0005625,-0.0021679
1.3150000,1.3150000,1.3150000,-0.0008518,0.0000732,-0.0421351,-0.0008518,-0.0005554,-0.0021439
1.3175000,1.3175000,1.3175000,-0.0008421,0.0000728,-0.0418954,-0.0008421,-0.0005484,-0.0021202
1.3200000,1.3200000,1.3200000,-0.0008326,0.0000724,-0.0416574,-0.0008326,-0.0005415,-0.0020969
1.3225000,1.3225000,1.3225000,-0.0008231,0.0000720,-0.0414213,-0.0008231,-0.0005346,-0.0020738
1.3250000,1.3250000,1.3250000,-0.0008138,0.0000716,-0.0411870,-0.0008138,-0.0005279,-0.0020511
1.3275000,1.3275000,1.3275000,-0.0008046,0.0000712,-0.0409544,-0.0008046,-0.0005212,-0.0020286
1.3300000,1.3300000,1.3300000,-0.0007955,0.0000708,-0.0407236,-0.0007955,-0.0005147,-0.0020065
1.3325000,1.3325000,1.3325000,-0.0007866,0.0000704,-0.0404945,-0.0007866,-0.0005082,-0.0019846
1.3350000,1.3350000,1.3350000,-0.0007777,0.0000700,-0.0402671,-0.0007777,-0.0005018,-0.0019630
1.3375000,1.3375000,1.3375000,-0.0007690,0.0000696,-0.0400414,-0.0007690,-0.0004955,-0.0019417
1.3400000,1.3400000,1.3400000,-0.0007604,0.0000692,-0.0398174,-0.0007604,-0.0004893,-0.0019206
1.3425000,1.3425000,1.3425000,-0.0007519,0.0000688,-0.0395951,-0.0007519,-0.0004832,-0.0018999
1.3450000,1.3450000,1.3450000,-0.0007435,0.0000685,-0.0393745,-0.0007435,-0.0004772,-0.0018793
1.3475000,1.3475000,1.3475000,-0.0007353,0.0000681,-0.0391554,-0.0007353,-0.0004712,-0.0018591
1.3500000,1.3500000,1.3500000,-0.0007271,0.0000677,-0.0389380,-0.0007271,-0.0004653,-0.0018391
1.3525000,1.3525000,1.3525000,-0.0007190,0.0000673,-0.0387222,-0.0007190,-0.0004595,-0.0018194
1.3550000,1.3550000,1.3550000,-0.0007111,0.0000669,-0.0385080,-0.0007111,-0.0004538,-0.0017999
1.3575000,1.3575000,1.3575000,-0.0007032,0.0000666,-0.0382953,-0.0007032,-0.0004482,-0.0017807
1.3600000,1.3600000,1.3600000,-0.0006955,0.0000662,-0.0380843,-0.0006955,-0.0004426,-0.0017617
1.3625000,1.3625000,1.3625000,-0.0006878,0.0000658,-0.0378748,-0.0006878,-0.0004371,-0.0017430
1.3650000,1.3650000,1.3650000,-0.0006803,0.0000655,-0.0376668,-0.0006803,-0.0004317,-0.0017244
1.3675000,1.3675000,1.3675000,-0.0006728,0.0000651,-0.0374603,-0.0006728,-0.0004264,-0.0017062
1.3700000,1.3700000,1.3700000,-0.0006654,0.0000648,-0.0372553,-0.0006654,-0.0004211,-0.0016881
1.3725000,1.3725000,1.3725000,-0.0006582,0.0000644,-0.0370519,-0.0006582,-0.0004159,-0.0016703
1.3750000,1.3750000,1.3750000,-0.0006510,0.0000641,-0.0368499,-0.0006510,-0.0004108,-0.0016527
1.3775000,1.3775000,1.3775000,-0.0006439,0.0000637,-0.0366493,-0.0006439,-0.0004057,-0.0016353
1.3800000,1.3800000,1.3800000,-0.0006369,0.0000634,-0.0364503,-0.0006369,-0.0004007,-0.0016182
1.3825000,1.3825000,1.3825000,-0.0006300,0.0000630,-0.0362526,-0.0006300,-0.0003958,-0.0016012
1.3850000,1.3850000,1.3850000,-0.0006232,0.0000627,-0.0360564,-0.0006232,-0.0003909,-0.0015845
1.3875000,1.3875000,1.3875000,-0.0006164,0.0000623,-0.0358616,-0.0006164,-0.0003861,-0.0015680
1.3900000,1.3900000,1.3900000,-0.0006098,0.0000620,-0.0356683,-0.0006098,-0.0003814,-0.0015517
1.3925000,1.3925000,1.3925000,-0.0006032,0.0000617,-0.0354762,-0.0006032,-0.0003767,-0.0015355
1.3950000,1.3950000,1.3950000,-0.0005967,0.0000613,-0.0352856,-0.0005967,-0.0003721,-0.0015196
1.3975000,1.3975000,1.3975000,-0.0005903,0.0000610,-0.0350964,-0.0005903,-0.0003676,-0.0015039
1.4000000,1.4000000,1.4000000,-0.0005840,0.0000607,-0.0349084,-0.0005840,-0.0003631,-0.0014884
1.4025000,1.4025000,1.4025000,-0.0005778,0.0000604,-0.0347219,-0.0005778,-0.0003586,-0.0014730
1.4050000,1.4050000,1.4050000,-0.0005716,0.0000600,-0.0345366,-0.0005716,-0.0003543,-0.0014579
1.4075000,1.4075000,1.4075000,-0.0005655,0.0000597,-0.0343527,-0.0005655,-0.0003499,-0.0014429
1.4100000,1.4100000,1.4100000,-0.0005595,0.0000594,-0.0341701,-0.0005595,-0.0003457,-0.0014281
1.4125000,1.4125000,1.4125000,-0.0005535,0.0000591,-0.0339887,-0.0005535,-0.0003415,-0.0014135
1.4150000,1.4150000,1.4150000,-0.0005477,0.0000588,-0.0338087,-0.0005477,-0.0003373,-0.0013991
1.4175000,1.4175000,1.4175000,-0.0005419,0.0000585,-0.0336299,-0.0005419,-0.0003332,-0.0013848
1.4200000,1.4200000,1.4200000,-0.0005362,0.0000582,-0.0334524,-0.0005362,-0.0003292,-0.0013708
1.4225000,1.4225000,1.4225000,-0.0005305,0.0000579,-0.0332761,-0.0005305,-0.0003252,-0.0013569
1.4250000,1.4250000,1.4250000,-0.0005249,0.0000576,-0.0331011,-0.0005249,-0.0003213,-0.0013431
1.4275000,1.4275000,1.4275000,-0.0005194,0.0000573,-0.0329273,-0.0005194,-0.0003174,-0.0013295
1.4300000,1.4300000,1.4300000,-0.0005140,0.0000570,-0.0327547,-0.0005140,-0.0003135,-0.0013161
1.4325000,1.4325000,1.4325000,-0.0005086,0.0000567,-0.0325833,-0.0005086,-0.0003098,-0.0013029
1.4350000,1.4350000,1.4350000,-0.0005033,0.0000564,-0.0324131,-0.0005033,-0.0003060,-0.0012898
1.4375000,1.4375000,1.4375000,-0.0004980,0.0000561,-0.0322441,-0.0004980,-0.0003023,-0.0012769
1.4400000,1.4400000,1.4400000,-0.0004928,0.0000558,-0.0320762,-0.0004928,-0.0002987,-0.0012641
1.4425000,1.4425000,1.4425000,-0.0004877,0.0000555,-0.0319095,-0.0004877,-0.0002951,-0.0012515
1.4450000,1.4450000,1.4450000,-0.0004827,0.0000552,-0.0317440,-0.0004827,-0.0002915,-0.0012390
1.4475000,1.4475000,1.4475000,-0.0004777,0.0000549,-0.0315796,-0.0004777,-0.0002880,-0.0012266
1.4500000,1.4500000,1.4500000,-0.0004727,0.0000546,-0.0314164,-0.0004727,-0.0002846,-0.0012145
1.4525000,1.4525000,1.4525000,-0.0004678,0.0000543,-0.0312543,-0.0004678,-0.0002812,-0.0012024
1.4550000,1.4550000,1.4550000,-0.0004630,0.0000541,-0.0310932,-0.0004630,-0.0002778,-0.0011905
1.4575000,1.4575000,1.4575000,-0.0004583,0.0000538,-0.0309333,-0.0004583,-0.0002745,-0.0011788
1.4600000,1.4600000,1.4600000,-0.0004535,0.0000535,-0.0307745,-0.0004535,-0.0002712,-0.0011672
1.4625000,1.4625000,1.4625000,-0.0004489,0.0000532,-0.0306168,-0.0004489,-0.0002679,-0.0011557
1.4650000,1.4650000,1.4650000,-0.0004443,0.0000530,-0.0304601,-0.0004443,-0.0002647,-0.0011443
1.4675000,1.4675000,1.4675000,-0.0004398,0.0000527,-0.0303046,-0.0004398,-0.0002616,-0.0011331
1.4700000,1.4700000,1.4700000,-0.0004353,0.0000524,-0.0301500,-0.0004353,-0.0002584,-0.0011220
1.4725000,1.4725000,1.4725000,-0.0004308,0.0000522,-0.0299966,-0.0004308,-0.0002553,-0.0011111
1.4750000,1.4750000,1.4750000,-0.0004265,0.0000519,-0.0298441,-0.0004265,-0.0002523,-0.0011003
1.4775000,1.4775000,1.4775000,-0.0004221,0.0000516,-0.0296927,-0.0004221,-0.0002493,-0.0010896
1.4800000,1.4800000,1.4800000,-0.0004179,0.0000514,-0.0295423,-0.0004179,-0.0002463,-0.0010790
1.4825000,1.4825000,1.4825000,-0.0004136,0.0000511,-0.0293930,-0.0004136,-0.0002434,-0.0010685
1.4850000,1.4850000,1.4850000,-0.0004095,0.0000509,-0.0292446,-0.0004095,-0.0002405,-0.0010582
1.4875000,1.4875000,1.4875000,-0.0004053,0.0000506,-0.0290972,-0.0004053,-0.0002376,-0.0010480
1.4900000,1.4900000,1.4900000,-0.0004013,0.0000503,-0.0289509,-0.0004013,-0.0002348,-0.0010379
1.4925000,1.4925000,1.4925000,-0.0003972,0.0000501,-0.0288055,-0.0003972,-0.0002320,-0.0010279
1.4950000,1.4950000,1.4950000,-0.0003932,0.0000498,-0.0286610,-0.0003932,-0.0002293,-0.0010180
1.4975000,1.4975000,1.4975000,-0.0003893,0.0000496,-0.0285176,-0.0003893,-0.0002266,-0.0010083
1.5000000,1.5000000,1.5000000,-0.0003854,0.0000493,-0.0283751,-0.0003854,-0.0002239,-0.0009987
1.5025000,1.5025000,1.5025000,-0.0003816,0.0000491,-0.0282335,-0.0003816,-0.0002212,-0.0009891
1.5050000,1.5050000,1.5050000,-0.0003778,0.0000489,-0.0280929,-0.0003778,-0.0002186,-0.0009797
1.5075000,1.5075000,1.5075000,-0.0003740,0.0000486,-0.0279532,-0.0003740,-0.0002160,-0.0009704
1.5100000,1.5100000,1.5100000,-0.0003703,0.0000484,-0.0278145,-0.0003703,-0.0002135,-0.0009612
1.5125000,1.5125000,1.5125000,-0.0003666,0.0000481,-0.0276766,-0.0003666,-0.0002109,-0.0009521
1.5150000,1.5150000,1.5150000,-0.0003630,0.0000479,-0.0275397,-0.0003630,-0.0002084,-0.0009431
1.5175000,1.5175000,1.5175000,-0.0003594,0.0000477,-0.0274037,-0.0003594,-0.0002060,-0.0009342
1.5200000,1.5200000,1.5200000,-0.0003559,0.0000474,-0.0272685,-0.0003559,-0.0002036,-0.0009254
1.5225000,1.5225000,1.5225000,-0.0003524,0.0000472,-0.0271343,-0.0003524,-0.0002012,-0.0009167
1.5250000,1.5250000,1.5250000,-0.0003489,0.0000470,-0.0270009,-0.0003489,-0.0001988,-0.0009081
1.5275000,1.5275000,1.5275000,-0.0003455,0.0000467,-0.0268684,-0.0003455,-0.0001964,-0.0008996
1.5300000,1.5300000,1.5300000,-0.0003421,0.0000465,-0.0267368,-0.0003421,-0.0001941,-0.0008912
1.5325000,1.5325000,1.5325000,-0.0003387,0.0000463,-0.0266060,-0.0003387,-0.0001918,-0.0008828
1.5350000,1.5350000,1.5350000,-0.0003354,0.0000460,-0.0264761,-0.0003354,-0.0001896,-0.0008746
1.5375000,1.5375000,1.5375000,-0.0003322,0.0000458,-0.0263470,-0.0003322,-0.0001874,-0.0008665
1.5400000,1.5400000,1.5400000,-0.0003289,0.0000456,-0.0262188,-0.0003289,-0.0001852,-0.0008585
1.5425000,1.5425000,1.5425000,-0.0003257,0.0000454,-0.0260914,-0.0003257,-0.0001830,-0.0008505
1.5450000,1.5450000,1.5450000,-0.0003226,0.0000452,-0.0259648,-0.0003226,-0.0001808,-0.0008426
1.5475000,1.5475000,1.5475000,-0.0003194,0.0000449,-0.0258390,-0.0003194,-0.0001787,-0.0008349
1.5500000,1.5500000,1.5500000,-0.0003164,0.0000447,-0.0257141,-0.0003164,-0.0001766,-0.0008272
1.5525000,1.5525000,1.5525000,-0.0003133,0.0000445,-0.0255899,-0.0003133,-0.0001745,-0.0008196
1.5550000,1.5550000,1.5550000,-0.0003103,0.0000443,-0.0254666,-0.0003103,-0.0001725,-0.0008120
1.5575000,1.5575000,1.5575000,-0.0003073,0.0000441,-0.0253440,-0.0003073,-0.0001705,-0.0008046
1.5600000,1.5600000,1.5600000,-0.0003043,0.0000439,-0.0252222,-0.0003043,-0.0001685,-0.0007972
1.5625000,1.5625000,1.5625000,-0.0003014,0.0000437,-0.0251012,-0.0003014,-0.0001665,-0.0007900
1.5650000,1.5650000,1.5650000,-0.0002985,0.0000434,-0.0249810,-0.0002985,-0.0001645,-0.0007828
1.5675000,1.5675000,1.5675000,-0.0002957,0.0000432,-0.0248616,-0.0002957,-0.0001626,-0.0007757
1.5700000,1.5700000,1.5700000,-0.0002929,0.0000430,-0.0247429,-0.0002929,-0.0001607,-0.0007686
1.5725000,1.5725000,1.5725000,-0.0002901,0.0000428,-0.0246249,-0.0002901,-0.0001588,-0.0007616
1.5750000,1.5750000,1.5750000,-0.0002873,0.0000426,-0.0245077,-0.0002873,-0.0001570,-0.0007548
1.5775000,1.5775000,1.5775000,-0.0002846,0.0000424,-0.0243913,-0.0002846,-0.0001551,-0.0007479
1.5800000,1.5800000,1.5800000,-0.0002819,0.0000422,-0.0242756,-0.0002819,-0.0001533,-0.0007412
1.5825000,1.5825000,1.5825000,-0.0002792,0.0000420,-0.0241606,-0.0002792,-0.0001515,-0.0007345
1.5850000,1.5850000,1.5850000,-0.0002766,0.0000418,-0.0240463,-0.0002766,-0.0001498,-0.0007279
1.5875000,1.5875000,1.5875000,-0.0002740,0.0000416,-0.0239328,-0.0002740,-0.0001480,-0.0007214
1.5900000,1.5900000,1.5900000,-0.0002714,0.0000414,-0.0238200,-0.0002714,-0.0001463,-0.0007150
1.5925000,1.5925000,1.5925000,-0.0002688,0.0000412,-0.0237079,-0.0002688,-0.0001446,-0.0007086
1.5950000,1.5950000,1.5950000,-0.0002663,0.0000410,-0.0235965,-0.0002663,-0.0001429,-0.0007023
1.5975000,1.5975000,1.5975000,-0.0002638,0.0000408,-0.0234857,-0.0002638,-0.0001412,-0.0006960
