# r[nm],d[nm],daligned[nm],U(d)[kj/mol],V(d)[e/nm],Uslab(d)[kJ/mol],UC(d)[kJ/mol],UK(d)[kJ/mol],UCl(d)[kJ/mol]
0.1925000,0.1925000,0.1925000,1630.4567363,-0.1101293,130.3663443,1630.4567363,1032.2562639,inf
0.1950000,0.1950000,0.1950000,1407.6612987,-0.1144034,113.6209168,1407.6612987,890.6304750,inf
0.1975000,0.1975000,0.1975000,1217.6231258,-0.1182356,99.2129020,1217.6231258,769.9031584,inf
0.2000000,0.2000000,0.2000000,1055.1813219,-0.1216584,86.7929564,1055.1813219,666.7759115,inf
0.2025000,0.2025000,0.2025000,916.0438501,-0.1247019,76.0679493,916.0438501,578.5061578,inf
0.2050000,0.2050000,0.2050000,796.6319732,-0.1273942,66.7909413,796.6319732,502.8075847,inf
0.2075000,0.2075000,0.2075000,693.9541584,-0.1297611,58.7530740,693.9541584,437.7694381,inf
0.2100000,0.2100000,0.2100000,605.5035714,-0.1318269,51.7770631,605.5035714,381.7909182,inf
0.2125000,0.2125000,0.2125000,529.1745129,-0.1336141,45.7120268,529.1745129,333.5277025,inf
0.2150000,0.2150000,0.2150000,463.1941108,-0.1351435,40.4293724,463.1941108,291.8482323,inf
0.2175000,0.2175000,0.2175000,406.0663315,-0.1364345,35.8194680,406.0663315,255.7978838,1698.3967401
0.2200000,0.2200000,0.2200000,356.5259700,-0.1375050,31.7888743,356.5259700,224.5695209,1492.4529678
0.2225000,0.2225000,0.2225000,313.5007407,-0.1383712,28.2579875,313.5007407,197.4792309,1313.2454554
0.2250000,0.2250000,0.2250000,276.0799642,-0.1390478,25.1590092,276.0799642,173.9462767,1157.0610164
0.2275000,0.2275000,0.2275000,243.4886366,-0.1395470,22.4341946,243.4886366,153.4764947,1020.7377953
0.2300000,0.2300000,0.2300000,215.0659019,-0.1398781,20.0343312,215.0659019,135.6485105,901.5780339
0.2325000,0.2325000,0.2325000,190.2471351,-0.1400461,17.9174147,190.2471351,120.1022686,797.2754830
0.2350000,0.2350000,0.2350000,168.5489947,-0.1400498,16.0475025,168.5489947,106.5294581,705.8548630
0.2375000,0.2375000,0.2375000,149.5569226,-0.1398805,14.3937355,149.5569226,94.6654943,625.6212606
0.2400000,0.2400000,0.2400000,132.9146706,-0.1395200,12.9295097,132.9146706,84.2827774,555.1177370
0.2425000,0.2425000,0.2425000,118.3155067,-0.1389402,11.6317533,118.3155067,75.1850157,493.0897405
0.2450000,0.2450000,0.2450000,105.4948157,-0.1381030,10.4802513,105.4948157,67.2024599,438.4551681
0.2475000,0.2475000,0.2475000,94.2238568,-0.1369641,9.4569879,94.2238568,60.1879477,390.2791278
0.2500000,0.2500000,0.2500000,84.3044835,-0.1354773,8.5455527,84.3044835,54.0136854,347.7526219
0.2525000,0.2525000,0.2525000,75.5646692,-0.1336027,7.7307363,75.5646692,48.5686904,310.1745061
0.2550000,0.2550000,0.2550000,67.8547267,-0.1313152,6.9984298,67.8547267,43.7567845,276.9361916
0.2575000,0.2575000,0.2575000,61.0441402,-0.1286133,6.3358210,61.0441402,39.4949892,247.5086490
0.2600000,0.2600000,0.2600000,55.0189520,-0.1255256,5.7317233,55.0189520,35.7121470,221.4313437
0.2625000,0.2625000,0.2625000,49.6796442,-0.1221129,5.1767993,49.6796442,32.3476117,198.3027991
0.2650000,0.2650000,0.2650000,44.9394414,-0.1184646,4.6635175,44.9394414,29.3499133,177.7725287
0.2675000,0.2675000,0.2675000,40.7229305,-0.1146892,4.1858661,40.7229305,26.6753881,159.5341245
0.2700000,0.2700000,0.2700000,36.9648816,-0.1108993,3.7389909,36.9648816,24.2868359,143.3193262
0.2725000,0.2725000,0.2725000,33.6091564,-0.1071962,3.3189311,33.6091564,22.1522904,128.8929216
0.2750000,0.2750000,0.2750000,30.6076287,-0.1036564,2.9225115,30.6076287,20.2439745,116.0483610
0.2775000,0.2775000,0.2775000,27.9190936,-0.1003234,2.5473233,27.9190936,18.5374673,104.6039806
0.2800000,0.2800000,0.2800000,25.5081903,-0.0972067,2.1916785,25.5081903,17.0110688,94.3997500
0.2825000,0.2825000,0.2825000,23.3443948,-0.0942857,1.8544641,23.3443948,15.6453264,85.2944698
0.2850000,0.2850000,0.2850000,21.4011343,-0.0915183,1.5349050,21.4011343,14.4226805,77.1633577
0.2875000,0.2875000,0.2875000,19.6550532,-0.0888499,1.2323138,19.6550532,13.3272005,69.8959768
0.2900000,0.2900000,0.2900000,18.0854341,-0.0862228,0.9459113,18.0854341,12.3443944,63.3944674
0.2925000,0.2925000,0.2925000,16.6737522,-0.0835852,0.6747580,16.6737522,11.4610815,57.5720552
0.2950000,0.2950000,0.2950000,15.4033357,-0.0808987,0.4177781,15.4033357,10.6653183,52.3518059
0.2975000,0.2975000,0.2975000,14.2591075,-0.0781450,0.1738275,14.2591075,9.9463572,47.6655898
0.3000000,0.3000000,0.3000000,13.2273928,-0.0753302,-0.0582301,13.2273928,9.2946110,43.4532118
0.3025000,0.3025000,0.3025000,12.2957812,-0.0724863,-0.2794585,12.2957812,8.7015962,39.6616530
0.3050000,0.3050000,0.3050000,11.4530341,-0.0696700,-0.4907999,11.4530341,8.1598420,36.2443725
0.3075000,0.3075000,0.3075000,10.6890212,-0.0669570,-0.6930512,10.6890212,7.6627715,33.1606292
0.3100000,0.3100000,0.3100000,9.9946675,-0.0644352,-0.8868715,9.9946675,7.2045806,30.3748039
0.3125000,0.3125000,0.3125000,9.3618901,-0.0621964,-1.0728217,9.3618901,6.7801426,27.8557257
0.3150000,0.3150000,0.3150000,8.7835122,-0.0603290,-1.2514278,8.7835122,6.3849594,25.5760252
0.3175000,0.3175000,0.3175000,8.2531576,-0.0589116,-1.4232640,8.2531576,6.0151550,23.5115424
0.3200000,0.3200000,0.3200000,7.7651383,-0.0580073,-1.5890383,7.7651383,5.6674931,21.6408147
0.3225000,0.3225000,0.3225000,7.3143594,-0.0576573,-1.7496358,7.3143594,5.3393863,19.9446566
0.3250000,0.3250000,0.3250000,6.8962561,-0.0578737,-1.9060563,6.8962561,5.0288699,18.4058267
0.3275000,0.3275000,0.3275000,6.5067706,-0.0586334,-2.0592214,6.5067706,4.7345292,17.0087705
0.3300000,0.3300000,0.3300000,6.1423581,-0.0598743,-2.2097114,6.1423581,4.4553857,15.7394194
0.3325000,0.3325000,0.3325000,5.8000042,-0.0614969,-2.3575479,5.8000042,4.1907635,14.5850325
0.3350000,0.3350000,0.3350000,5.4772282,-0.0633726,-2.5021240,5.4772282,3.9401604,13.5340678
0.3375000,0.3375000,0.3375000,5.1720576,-0.0653561,-2.6423054,5.1720576,3.7031370,12.5760794
0.3400000,0.3400000,0.3400000,4.8829687,-0.0673018,-2.7766492,4.8829687,3.4792333,11.7016308
0.3425000,0.3425000,0.3425000,4.6088020,-0.0690775,-2.9036574,4.6088020,3.2679082,10.9022199
0.3450000,0.3450000,0.3450000,4.3486662,-0.0705768,-3.0219933,4.3486662,3.0685052,10.1702059
0.3475000,0.3475000,0.3475000,4.1018473,-0.0717252,-3.1306251,4.1018473,2.8802384,9.4987306
0.3500000,0.3500000,0.3500000,3.8677279,-0.0724836,-3.2288944,3.8677279,2.7021996,8.8816318
0.3525000,0.3525000,0.3525000,3.6457231,-0.0728464,-3.3165227,3.6457231,2.5333789,8.3133520
0.3550000,0.3550000,0.3550000,3.4352304,-0.0728368,-3.3935766,3.4352304,2.3726937,7.7888523
0.3575000,0.3575000,0.3575000,3.2355954,-0.0724991,-3.4604073,3.2355954,2.2190226,7.3035428
0.3600000,0.3600000,0.3600000,3.0460902,-0.0718884,-3.5175774,3.0460902,2.0712450,6.8532373
0.3625000,0.3625000,0.3625000,2.8659039,-0.0710585,-3.5657831,2.8659039,1.9282911,6.4341343
0.3650000,0.3650000,0.3650000,2.6941416,-0.0700507,-3.6057803,2.6941416,1.7892012,6.0428174
0.3675000,0.3675000,0.3675000,2.5298300,-0.0688824,-3.6383197,2.5298300,1.6531817,5.6762642
0.3700000,0.3700000,0.3700000,2.3719338,-0.0675404,-3.6640973,2.3719338,1.5196405,5.3318495
0.3725000,0.3725000,0.3725000,2.2193890,-0.0659794,-3.6837242,2.2193890,1.3881777,5.0073338
0.3750000,0.3750000,0.3750000,2.0711555,-0.0641294,-3.6977130,2.0711555,1.2585340,4.7008355
0.3775000,0.3775000,0.3775000,1.9262870,-0.0619116,-3.7064822,1.9262870,1.1305157,4.4107879
0.3800000,0.3800000,0.3800000,1.7840000,-0.0592629,-3.7103697,1.7840000,1.0039366,4.1358890
0.3825000,0.3825000,0.3825000,1.6437239,-0.0561617,-3.7096537,1.6437239,0.8786077,3.8750493
0.3850000,0.3850000,0.3850000,1.5051153,-0.0526500,-3.7045741,1.5051153,0.7543826,3.6273404
0.3875000,0.3875000,0.3875000,1.3680378,-0.0488442,-3.6953510,1.3680378,0.6312393,3.3919465
0.3900000,0.3900000,0.3900000,1.2325215,-0.0449285,-3.6821996,1.2325215,0.5093608,3.1681198
0.3925000,0.3925000,0.3925000,1.0987205,-0.0411319,-3.6653399,1.0987205,0.3891800,2.9551391
0.3950000,0.3950000,0.3950000,0.9668851,-0.0376930,-3.6450016,0.9668851,0.2713720,2.7522759
0.3975000,0.3975000,0.3975000,0.8373492,-0.0348231,-3.6214252,0.8373492,0.1567939,2.5587670
0.4000000,0.4000000,0.4000000,0.7105283,-0.0326745,-3.5948610,0.7105283,0.0463932,2.3737939
0.4025000,0.4025000,0.4025000,0.5869161,-0.0313227,-3.5655655,0.5869161,-0.0588947,2.1964718
0.4050000,0.4050000,0.4050000,0.4670717,-0.0307646,-3.5337980,0.4670717,-0.1582367,2.0258516
0.4075000,0.4075000,0.4075000,0.3515932,-0.0309291,-3.4998163,0.3515932,-0.2509675,1.8609391
0.4100000,0.4100000,0.4100000,0.2410805,-0.0316965,-3.4638734,0.2410805,-0.3366255,1.7007374
0.4125000,0.4125000,0.4125000,0.1360931,-0.0329202,-3.4262135,0.1360931,-0.4149619,1.5443079
0.4150000,0.4150000,0.4150000,0.0371096,-0.0344462,-3.3870704,0.0371096,-0.4859290,1.3908402
0.4175000,0.4175000,0.4175000,-0.0555035,-0.0361287,-3.3466647,-0.0555035,-0.5496563,1.2397169
0.4200000,0.4200000,0.4200000,-0.1415116,-0.0378394,-3.3052032,-0.1415116,-0.6064212,1.0905593
0.4225000,0.4225000,0.4225000,-0.2208183,-0.0394726,-3.2628775,-0.2208183,-0.6566164,0.9432436
0.4250000,0.4250000,0.4250000,-0.2934616,-0.0409465,-3.2198643,-0.2934616,-0.7007169,0.7978893
0.4275000,0.4275000,0.4275000,-0.3596024,-0.0422008,-3.1763251,-0.3596024,-0.7392462,0.6548230
0.4300000,0.4300000,0.4300000,-0.4195080,-0.0431945,-3.1324067,-0.4195080,-0.7727431,0.5145288
0.4325000,0.4325000,0.4325000,-0.4735329,-0.0439019,-3.0882417,-0.4735329,-0.8017299,0.3775936
0.4350000,0.4350000,0.4350000,-0.5220947,-0.0443097,-3.0439492,-0.5220947,-0.8266869,0.2446553
0.4375000,0.4375000,0.4375000,-0.5656478,-0.0444154,-2.9996359,-0.5656478,-0.8480340,0.1163562
0.4400000,0.4400000,0.4400000,-0.6046548,-0.0442253,-2.9553964,-0.6046548,-0.8661208,-0.0066941
0.4425000,0.4425000,0.4425000,-0.6395594,-0.0437546,-2.9113146,-0.6395594,-0.8812279,-0.1239489
0.4450000,0.4450000,0.4450000,-0.6707620,-0.0430263,-2.8674645,-0.6707620,-0.8935739,-0.2349479
0.4475000,0.4475000,0.4475000,-0.6986035,-0.0420703,-2.8239107,-0.6986035,-0.9033288,-0.3393329
0.4500000,0.4500000,0.4500000,-0.7233578,-0.0409222,-2.7807097,-0.7233578,-0.9106286,-0.4368580
0.4525000,0.4525000,0.4525000,-0.7452328,-0.0396211,-2.7379102,-0.7452328,-0.9155895,-0.5273931
0.4550000,0.4550000,0.4550000,-0.7643795,-0.0382073,-2.6955543,-0.7643795,-0.9183200,-0.6109226
0.4575000,0.4575000,0.4575000,-0.7809055,-0.0367207,-2.6536780,-0.7809055,-0.9189290,-0.6875387
0.4600000,0.4600000,0.4600000,-0.7948903,-0.0351980,-2.6123116,-0.7948903,-0.9175318,-0.7574322
0.4625000,0.4625000,0.4625000,-0.8063998,-0.0336719,-2.5714806,-0.8063998,-0.9142519,-0.8208795
0.4650000,0.4650000,0.4650000,-0.8154992,-0.0321701,-2.5312060,-0.8154992,-0.9092211,-0.8782269
0.4675000,0.4675000,0.4675000,-0.8222607,-0.0307147,-2.4915049,-0.8222607,-0.9025785,-0.9298720
0.4700000,0.4700000,0.4700000,-0.8267700,-0.0293225,-2.4523911,-0.8267700,-0.8944677,-0.9762422
0.4725000,0.4725000,0.4725000,-0.8291275,-0.0280054,-2.4138750,-0.8291275,-0.8850343,-1.0177725
0.4750000,0.4750000,0.4750000,-0.8294488,-0.0267709,-2.3759644,-0.8294488,-0.8744233,-1.0548831
0.4775000,0.4775000,0.4775000,-0.8278622,-0.0256228,-2.3386647,-0.8278622,-0.8627765,-1.0879606
0.4800000,0.4800000,0.4800000,-0.8245064,-0.0245621,-2.3019791,-0.8245064,-0.8502306,-1.1173434
0.4825000,0.4825000,0.4825000,-0.8195263,-0.0235873,-2.2659090,-0.8195263,-0.8369156,-1.1433146
0.4850000,0.4850000,0.4850000,-0.8130706,-0.0226953,-2.2304541,-0.8130706,-0.8229537,-1.1660998
0.4875000,0.4875000,0.4875000,-0.8052877,-0.0218819,-2.1956127,-0.8052877,-0.8084584,-1.1858731
0.4900000,0.4900000,0.4900000,-0.7963239,-0.0211420,-2.1613818,-0.7963239,-0.7935343,-1.2027649
0.4925000,0.4925000,0.4925000,-0.7863204,-0.0204702,-2.1277573,-0.7863204,-0.7782768,-1.2168744
0.4950000,0.4950000,0.4950000,-0.7754123,-0.0198610,-2.0947342,-0.7754123,-0.7627724,-1.2282811
0.4975000,0.4975000,0.4975000,-0.7637268,-0.0193086,-2.0623067,-0.7637268,-0.7470990,-1.2370558
0.5000000,0.5000000,0.5000000,-0.7513828,-0.0188076,-2.0304682,-0.7513828,-0.7313259,-1.2432697
0.5025000,0.5025000,0.5025000,-0.7384904,-0.0183530,-1.9992117,-0.7384904,-0.7155148,-1.2470011
0.5050000,0.5050000,0.5050000,-0.7251504,-0.0179398,-1.9685295,-0.7251504,-0.6997201,-1.2483392
0.5075000,0.5075000,0.5075000,-0.7114548,-0.0175636,-1.9384137,-0.7114548,-0.6839895,-1.2473861
0.5100000,0.5100000,0.5100000,-0.6974868,-0.0172202,-1.9088558,-0.6974868,-0.6683645,-1.2442569
0.5125000,0.5125000,0.5125000,-0.6833213,-0.0169059,-1.8798473,-0.6833213,-0.6528808,-1.2390782
0.5150000,0.5150000,0.5150000,-0.6690253,-0.0166172,-1.8513792,-0.6690253,-0.6375693,-1.2319861
0.5175000,0.5175000,0.5175000,-0.6546583,-0.0163512,-1.8234425,-0.6546583,-0.6224561,-1.2231234
0.5200000,0.5200000,0.5200000,-0.6402729,-0.0161050,-1.7960282,-0.6402729,-0.6075635,-1.2126371
0.5225000,0.5225000,0.5225000,-0.6259154,-0.0158762,-1.7691269,-0.6259154,-0.5929097,-1.2006758
0.5250000,0.5250000,0.5250000,-0.6116265,-0.0156628,-1.7427293,-0.6116265,-0.5785099,-1.1873869
0.5275000,0.5275000,0.5275000,-0.5974413,-0.0154626,-1.7168261,-0.5974413,-0.5643763,-1.1729149
0.5300000,0.5300000,0.5300000,-0.5833902,-0.0152741,-1.6914081,-0.5833902,-0.5505187,-1.1573997
0.5325000,0.5325000,0.5325000,-0.5694995,-0.0150957,-1.6664659,-0.5694995,-0.5369444,-1.1409748
0.5350000,0.5350000,0.5350000,-0.5557914,-0.0149262,-1.6419903,-0.5557914,-0.5236589,-1.1237672
0.5375000,0.5375000,0.5375000,-0.5422846,-0.0147644,-1.6179721,-0.5422846,-0.5106659,-1.1058959
0.5400000,0.5400000,0.5400000,-0.5289949,-0.0146093,-1.5944023,-0.5289949,-0.4979675,-1.0874717
0.5425000,0.5425000,0.5425000,-0.5159351,-0.0144600,-1.5712718,-0.5159351,-0.4855646,-1.0685973
0.5450000,0.5450000,0.5450000,-0.5031157,-0.0143159,-1.5485717,-0.5031157,-0.4734569,-1.0493672
0.5475000,0.5475000,0.5475000,-0.4905450,-0.0141761,-1.5262934,-0.4905450,-0.4616431,-1.0298677
0.5500000,0.5500000,0.5500000,-0.4782294,-0.0140401,-1.5044280,-0.4782294,-0.4501212,-1.0101771
0.5525000,0.5525000,0.5525000,-0.4661734,-0.0139075,-1.4829671,-0.4661734,-0.4388883,-0.9903665
0.5550000,0.5550000,0.5550000,-0.4543804,-0.0137778,-1.4619023,-0.4543804,-0.4279408,-0.9704995
0.5575000,0.5575000,0.5575000,-0.4428523,-0.0136507,-1.4412254,-0.4428523,-0.4172750,-0.9506333
0.5600000,0.5600000,0.5600000,-0.4315897,-0.0135258,-1.4209282,-0.4315897,-0.4068863,-0.9308187
0.5625000,0.5625000,0.5625000,-0.4205925,-0.0134029,-1.4010027,-0.4205925,-0.3967700,-0.9111009
0.5650000,0.5650000,0.5650000,-0.4098596,-0.0132818,-1.3814412,-0.4098596,-0.3869211,-0.8915194
0.5675000,0.5675000,0.5675000,-0.3993893,-0.0131622,-1.3622360,-0.3993893,-0.3773344,-0.8721092
0.5700000,0.5700000,0.5700000,-0.3891791,-0.0130439,-1.3433795,-0.3891791,-0.3680043,-0.8529006
0.5725000,0.5725000,0.5725000,-0.3792259,-0.0129270,-1.3248644,-0.3792259,-0.3589253,-0.8339197
0.5750000,0.5750000,0.5750000,-0.3695266,-0.0128111,-1.3066835,-0.3695266,-0.3500917,-0.8151891
0.5775000,0.5775000,0.5775000,-0.3600771,-0.0126963,-1.2888296,-0.3600771,-0.3414978,-0.7967281
0.5800000,0.5800000,0.5800000,-0.3508734,-0.0125824,-1.2712959,-0.3508734,-0.3331378,-0.7785527
0.5825000,0.5825000,0.5825000,-0.3419112,-0.0124695,-1.2540756,-0.3419112,-0.3250059,-0.7606763
0.5850000,0.5850000,0.5850000,-0.3331858,-0.0123573,-1.2371620,-0.3331858,-0.3170964,-0.7431099
0.5875000,0.5875000,0.5875000,-0.3246926,-0.0122460,-1.2205486,-0.3246926,-0.3094036,-0.7258623
0.5900000,0.5900000,0.5900000,-0.3164266,-0.0121354,-1.2042291,-0.3164266,-0.3019217,-0.7089403
0.5925000,0.5925000,0.5925000,-0.3083828,-0.0120256,-1.1881974,-0.3083828,-0.2946451,-0.6923491
0.5950000,0.5950000,0.5950000,-0.3005562,-0.0119165,-1.1724472,-0.3005562,-0.2875684,-0.6760921
0.5975000,0.5975000,0.5975000,-0.2929418,-0.0118080,-1.1569727,-0.2929418,-0.2806860,-0.6601715
0.6000000,0.6000000,0.6000000,-0.2855345,-0.0117003,-1.1417681,-0.2855345,-0.2739925,-0.6445883
0.6025000,0.6025000,0.6025000,-0.2783292,-0.0115933,-1.1268277,-0.2783292,-0.2674828,-0.6293424
0.6050000,0.6050000,0.6050000,-0.2713208,-0.0114869,-1.1121460,-0.2713208,-0.2611517,-0.6144327
0.6075000,0.6075000,0.6075000,-0.2645042,-0.0113812,-1.0977175,-0.2645042,-0.2549940,-0.5998574
0.6100000,0.6100000,0.6100000,-0.2578746,-0.0112763,-1.0835370,-0.2578746,-0.2490049,-0.5856140
0.6125000,0.6125000,0.6125000,-0.2514270,-0.0111720,-1.0695993,-0.2514270,-0.2431795,-0.5716992
0.6150000,0.6150000,0.6150000,-0.2451566,-0.0110684,-1.0558993,-0.2451566,-0.2375132,-0.5581094
0.6175000,0.6175000,0.6175000,-0.2390585,-0.0109655,-1.0424321,-0.2390585,-0.2320012,-0.5448404
0.6200000,0.6200000,0.6200000,-0.2331280,-0.0108634,-1.0291929,-0.2331280,-0.2266391,-0.5318876
0.6225000,0.6225000,0.6225000,-0.2273607,-0.0107619,-1.0161769,-0.2273607,-0.2214226,-0.5192463
0.6250000,0.6250000,0.6250000,-0.2217518,-0.0106612,-1.0033797,-0.2217518,-0.2163475,-0.5069111
0.6275000,0.6275000,0.6275000,-0.2162971,-0.0105612,-0.9907966,-0.2162971,-0.2114094,-0.4948769
0.6300000,0.6300000,0.6300000,-0.2109922,-0.0104620,-0.9784233,-0.2109922,-0.2066046,-0.4831380
0.6325000,0.6325000,0.6325000,-0.2058328,-0.0103635,-0.9662555,-0.2058328,-0.2019290,-0.4716887
0.6350000,0.6350000,0.6350000,-0.2008148,-0.0102658,-0.9542890,-0.2008148,-0.1973788,-0.4605234
0.6375000,0.6375000,0.6375000,-0.1959341,-0.0101688,-0.9425198,-0.1959341,-0.1929503,-0.4496361
0.6400000,0.6400000,0.6400000,-0.1911869,-0.0100726,-0.9309437,-0.1911869,-0.1886401,-0.4390209
0.6425000,0.6425000,0.6425000,-0.1865694,-0.0099772,-0.9195570,-0.1865694,-0.1844445,-0.4286718
0.6450000,0.6450000,0.6450000,-0.1820776,-0.0098826,-0.9083559,-0.1820776,-0.1803602,-0.4185830
0.6475000,0.6475000,0.6475000,-0.1777082,-0.0097888,-0.8973365,-0.1777082,-0.1763839,-0.4087485
0.6500000,0.6500000,0.6500000,-0.1734574,-0.0096957,-0.8864953,-0.1734574,-0.1725125,-0.3991624
0.6525000,0.6525000,0.6525000,-0.1693218,-0.0096035,-0.8758286,-0.1693218,-0.1687429,-0.3898189
0.6550000,0.6550000,0.6550000,-0.1652981,-0.0095121,-0.8653331,-0.1652981,-0.1650721,-0.3807120
0.6575000,0.6575000,0.6575000,-0.1613831,-0.0094215,-0.8550054,-0.1613831,-0.1614971,-0.3718362
0.6600000,0.6600000,0.6600000,-0.1575736,-0.0093317,-0.8448420,-0.1575736,-0.1580152,-0.3631857
0.6625000,0.6625000,0.6625000,-0.1538664,-0.0092427,-0.8348398,-0.1538664,-0.1546236,-0.3547549
0.6650000,0.6650000,0.6650000,-0.1502587,-0.0091545,-0.8249957,-0.1502587,-0.1513198,-0.3465383
0.6675000,0.6675000,0.6675000,-0.1467475,-0.0090672,-0.8153065,-0.1467475,-0.1481011,-0.3385305
0.6700000,0.6700000,0.6700000,-0.1433301,-0.0089806,-0.8057692,-0.1433301,-0.1449651,-0.3307263
0.6725000,0.6725000,0.6725000,-0.1400036,-0.0088949,-0.7963808,-0.1400036,-0.1419093,-0.3231202
0.6750000,0.6750000,0.6750000,-0.1367654,-0.0088100,-0.7871385,-0.1367654,-0.1389315,-0.3157074
0.6775000,0.6775000,0.6775000,-0.1336131,-0.0087259,-0.7780394,-0.1336131,-0.1360294,-0.3084826
0.6800000,0.6800000,0.6800000,-0.1305439,-0.0086427,-0.7690809,-0.1305439,-0.1332007,-0.3014411
0.6825000,0.6825000,0.6825000,-0.1275557,-0.0085602,-0.7602601,-0.1275557,-0.1304434,-0.2945780
0.6850000,0.6850000,0.6850000,-0.1246459,-0.0084786,-0.7515745,-0.1246459,-0.1277555,-0.2878886
0.6875000,0.6875000,0.6875000,-0.1218124,-0.0083978,-0.7430215,-0.1218124,-0.1251349,-0.2813684
0.6900000,0.6900000,0.6900000,-0.1190529,-0.0083178,-0.7345985,-0.1190529,-0.1225796,-0.2750128
0.6925000,0.6925000,0.6925000,-0.1163653,-0.0082386,-0.7263032,-0.1163653,-0.1200879,-0.2688175
0.6950000,0.6950000,0.6950000,-0.1137475,-0.0081602,-0.7181331,-0.1137475,-0.1176580,-0.2627782
0.6975000,0.6975000,0.6975000,-0.1111975,-0.0080826,-0.7100858,-0.1111975,-0.1152880,-0.2568908
0.7000000,0.7000000,0.7000000,-0.1087134,-0.0080058,-0.7021591,-0.1087134,-0.1129763,-0.2511511
0.7025000,0.7025000,0.7025000,-0.1062932,-0.0079298,-0.6943507,-0.1062932,-0.1107212,-0.2455553
0.7050000,0.7050000,0.7050000,-0.1039352,-0.0078546,-0.6866584,-0.1039352,-0.1085211,-0.2400995
0.7075000,0.7075000,0.7075000,-0.1016375,-0.0077801,-0.6790801,-0.1016375,-0.1063746,-0.2347799
0.7100000,0.7100000,0.7100000,-0.0993984,-0.0077065,-0.6716136,-0.0993984,-0.1042800,-0.2295929
0.7125000,0.7125000,0.7125000,-0.0972163,-0.0076336,-0.6642569,-0.0972163,-0.1022359,-0.2245349
0.7150000,0.7150000,0.7150000,-0.0950895,-0.0075615,-0.6570080,-0.0950895,-0.1002410,-0.2196024
0.7175000,0.7175000,0.7175000,-0.0930165,-0.0074902,-0.6498648,-0.0930165,-0.0982939,-0.2147921
0.7200000,0.7200000,0.7200000,-0.0909957,-0.0074196,-0.6428256,-0.0909957,-0.0963932,-0.2101007
0.7225000,0.7225000,0.7225000,-0.0890257,-0.0073497,-0.6358884,-0.0890257,-0.0945376,-0.2055249
0.7250000,0.7250000,0.7250000,-0.0871051,-0.0072807,-0.6290513,-0.0871051,-0.0927260,-0.2010618
0.7275000,0.7275000,0.7275000,-0.0852324,-0.0072123,-0.6223126,-0.0852324,-0.0909571,-0.1967082
0.7300000,0.7300000,0.7300000,-0.0834063,-0.0071447,-0.6156705,-0.0834063,-0.0892297,-0.1924613
0.7325000,0.7325000,0.7325000,-0.0816256,-0.0070779,-0.6091232,-0.0816256,-0.0875428,-0.1883181
0.7350000,0.7350000,0.7350000,-0.0798889,-0.0070117,-0.6026691,-0.0798889,-0.0858952,-0.1842759
0.7375000,0.7375000,0.7375000,-0.0781950,-0.0069463,-0.5963064,-0.0781950,-0.0842858,-0.1803320
0.7400000,0.7400000,0.7400000,-0.0765427,-0.0068816,-0.5900337,-0.0765427,-0.0827137,-0.1764838
0.7425000,0.7425000,0.7425000,-0.0749309,-0.0068175,-0.5838493,-0.0749309,-0.0811778,-0.1727287
0.7450000,0.7450000,0.7450000,-0.0733585,-0.0067542,-0.5777516,-0.0733585,-0.0796771,-0.1690642
0.7475000,0.7475000,0.7475000,-0.0718243,-0.0066916,-0.5717392,-0.0718243,-0.0782107,-0.1654879
0.7500000,0.7500000,0.7500000,-0.0703274,-0.0066297,-0.5658104,-0.0703274,-0.0767778,-0.1619975
0.7525000,0.7525000,0.7525000,-0.0688667,-0.0065684,-0.5599640,-0.0688667,-0.0753773,-0.1585907
0.7550000,0.7550000,0.7550000,-0.0674412,-0.0065078,-0.5541984,-0.0674412,-0.0740085,-0.1552652
0.7575000,0.7575000,0.7575000,-0.0660500,-0.0064479,-0.5485123,-0.0660500,-0.0726705,-0.1520190
0.7600000,0.7600000,0.7600000,-0.0646921,-0.0063886,-0.5429042,-0.0646921,-0.0713625,-0.1488499
0.7625000,0.7625000,0.7625000,-0.0633667,-0.0063300,-0.5373729,-0.0633667,-0.0700837,-0.1457559
0.7650000,0.7650000,0.7650000,-0.0620727,-0.0062720,-0.5319171,-0.0620727,-0.0688334,-0.1427350
0.7675000,0.7675000,0.7675000,-0.0608095,-0.0062147,-0.5265353,-0.0608095,-0.0676108,-0.1397854
0.7700000,0.7700000,0.7700000,-0.0595762,-0.0061580,-0.5212265,-0.0595762,-0.0664151,-0.1369050
0.7725000,0.7725000,0.7725000,-0.0583720,-0.0061020,-0.5159893,-0.0583720,-0.0652458,-0.1340922
0.7750000,0.7750000,0.7750000,-0.0571960,-0.0060465,-0.5108225,-0.0571960,-0.0641021,-0.1313451
0.7775000,0.7775000,0.7775000,-0.0560476,-0.0059917,-0.5057250,-0.0560476,-0.0629834,-0.1286621
0.7800000,0.7800000,0.7800000,-0.0549260,-0.0059374,-0.5006956,-0.0549260,-0.0618890,-0.1260415
0.7825000,0.7825000,0.7825000,-0.0538306,-0.0058838,-0.4957331,-0.0538306,-0.0608183,-0.1234816
0.7850000,0.7850000,0.7850000,-0.0527605,-0.0058308,-0.4908365,-0.0527605,-0.0597707,-0.1209809
0.7875000,0.7875000,0.7875000,-0.0517152,-0.0057783,-0.4860046,-0.0517152,-0.0587456,-0.1185379
0.7900000,0.7900000,0.7900000,-0.0506940,-0.0057264,-0.4812364,-0.0506940,-0.0577424,-0.1161510
0.7925000,0.7925000,0.7925000,-0.0496963,-0.0056751,-0.4765308,-0.0496963,-0.0567607,-0.1138189
0.7950000,0.7950000,0.7950000,-0.0487214,-0.0056244,-0.4718868,-0.0487214,-0.0557998,-0.1115401
0.7975000,0.7975000,0.7975000,-0.0477688,-0.0055742,-0.4673034,-0.0477688,-0.0548593,-0.1093133
0.8000000,0.8000000,0.8000000,-0.0468378,-0.0055246,-0.4627795,-0.0468378,-0.0539386,-0.1071371
0.8025000,0.8025000,0.8025000,-0.0459280,-0.0054755,-0.4583143,-0.0459280,-0.0530372,-0.1050102
0.8050000,0.8050000,0.8050000,-0.0450388,-0.0054269,-0.4539068,-0.0450388,-0.0521547,-0.1029314
0.8075000,0.8075000,0.8075000,-0.0441697,-0.0053789,-0.4495560,-0.0441697,-0.0512906,-0.1008995
0.8100000,0.8100000,0.8100000,-0.0433200,-0.0053315,-0.4452610,-0.0433200,-0.0504444,-0.0989133
0.8125000,0.8125000,0.8125000,-0.0424894,-0.0052845,-0.4410210,-0.0424894,-0.0496157,-0.0969716
0.8150000,0.8150000,0.8150000,-0.0416774,-0.0052381,-0.4368350,-0.0416774,-0.0488042,-0.0950733
0.8175000,0.8175000,0.8175000,-0.0408834,-0.0051921,-0.4327021,-0.0408834,-0.0480093,-0.0932174
0.8200000,0.8200000,0.8200000,-0.0401071,-0.0051467,-0.4286217,-0.0401071,-0.0472306,-0.0914027
0.8225000,0.8225000,0.8225000,-0.0393480,-0.0051018,-0.4245927,-0.0393480,-0.0464678,-0.0896282
0.8250000,0.8250000,0.8250000,-0.0386055,-0.0050573,-0.4206144,-0.0386055,-0.0457205,-0.0878930
0.8275000,0.8275000,0.8275000,-0.0378795,-0.0050134,-0.4166860,-0.0378795,-0.0449884,-0.0861960
0.8300000,0.8300000,0.8300000,-0.0371693,-0.0049699,-0.4128067,-0.0371693,-0.0442709,-0.0845363
0.8325000,0.8325000,0.8325000,-0.0364747,-0.0049269,-0.4089758,-0.0364747,-0.0435679,-0.0829131
0.8350000,0.8350000,0.8350000,-0.0357952,-0.0048844,-0.4051925,-0.0357952,-0.0428790,-0.0813252
0.8375000,0.8375000,0.8375000,-0.0351304,-0.0048423,-0.4014560,-0.0351304,-0.0422037,-0.0797721
0.8400000,0.8400000,0.8400000,-0.0344800,-0.0048007,-0.3977656,-0.0344800,-0.0415419,-0.0782526
0.8425000,0.8425000,0.8425000,-0.0338437,-0.0047595,-0.3941206,-0.0338437,-0.0408932,-0.0767661
0.8450000,0.8450000,0.8450000,-0.0332211,-0.0047188,-0.3905203,-0.0332211,-0.0402572,-0.0753118
0.8475000,0.8475000,0.8475000,-0.0326118,-0.0046786,-0.3869641,-0.0326118,-0.0396338,-0.0738888
0.8500000,0.8500000,0.8500000,-0.0320156,-0.0046387,-0.3834512,-0.0320156,-0.0390225,-0.0724964
0.8525000,0.8525000,0.8525000,-0.0314321,-0.0045993,-0.3799809,-0.0314321,-0.0384232,-0.0711338
0.8550000,0.8550000,0.8550000,-0.0308610,-0.0045603,-0.3765527,-0.0308610,-0.0378354,-0.0698004
0.8575000,0.8575000,0.8575000,-0.0303020,-0.0045218,-0.3731659,-0.0303020,-0.0372591,-0.0684954
0.8600000,0.8600000,0.8600000,-0.0297548,-0.0044836,-0.3698199,-0.0297548,-0.0366939,-0.0672181
0.8625000,0.8625000,0.8625000,-0.0292191,-0.0044459,-0.3665140,-0.0292191,-0.0361395,-0.0659679
0.8650000,0.8650000,0.8650000,-0.0286947,-0.0044086,-0.3632477,-0.0286947,-0.0355957,-0.0647442
0.8675000,0.8675000,0.8675000,-0.0281812,-0.0043717,-0.3600203,-0.0281812,-0.0350623,-0.0635462
0.8700000,0.8700000,0.8700000,-0.0276785,-0.0043351,-0.3568313,-0.0276785,-0.0345390,-0.0623734
0.8725000,0.8725000,0.8725000,-0.0271863,-0.0042990,-0.3536801,-0.0271863,-0.0340257,-0.0612253
0.8750000,0.8750000,0.8750000,-0.0267042,-0.0042632,-0.3505662,-0.0267042,-0.0335220,-0.0601011
0.8775000,0.8775000,0.8775000,-0.0262321,-0.0042278,-0.3474889,-0.0262321,-0.0330277,-0.0590004
0.8800000,0.8800000,0.8800000,-0.0257698,-0.0041928,-0.3444478,-0.0257698,-0.0325428,-0.0579225
0.8825000,0.8825000,0.8825000,-0.0253170,-0.0041582,-0.3414423,-0.0253170,-0.0320668,-0.0568671
0.8850000,0.8850000,0.8850000,-0.0248734,-0.0041239,-0.3384719,-0.0248734,-0.0315998,-0.0558334
0.8875000,0.8875000,0.8875000,-0.0244390,-0.0040900,-0.3355360,-0.0244390,-0.0311413,-0.0548211
0.8900000,0.8900000,0.8900000,-0.0240134,-0.0040565,-0.3326343,-0.0240134,-0.0306914,-0.0538296
0.8925000,0.8925000,0.8925000,-0.0235964,-0.0040233,-0.3297661,-0.0235964,-0.0302497,-0.0528584
0.8950000,0.8950000,0.8950000,-0.0231879,-0.0039905,-0.3269310,-0.0231879,-0.0298161,-0.0519072
0.8975000,0.8975000,0.8975000,-0.0227876,-0.0039580,-0.3241286,-0.0227876,-0.0293904,-0.0509753
0.9000000,0.9000000,0.9000000,-0.0223954,-0.0039258,-0.3213582,-0.0223954,-0.0289724,-0.0500624
0.9025000,0.9025000,0.9025000,-0.0220111,-0.0038940,-0.3186196,-0.0220111,-0.0285621,-0.0491680
0.9050000,0.9050000,0.9050000,-0.0216345,-0.0038625,-0.3159122,-0.0216345,-0.0281591,-0.0482917
0.9075000,0.9075000,0.9075000,-0.0212654,-0.0038313,-0.3132355,-0.0212654,-0.0277634,-0.0474332
0.9100000,0.9100000,0.9100000,-0.0209037,-0.0038005,-0.3105892,-0.0209037,-0.0273748,-0.0465919
0.9125000,0.9125000,0.9125000,-0.0205491,-0.0037700,-0.3079729,-0.0205491,-0.0269931,-0.0457675
0.9150000,0.9150000,0.9150000,-0.0202016,-0.0037398,-0.3053860,-0.0202016,-0.0266183,-0.0449596
0.9175000,0.9175000,0.9175000,-0.0198609,-0.0037099,-0.3028281,-0.0198609,-0.0262500,-0.0441678
0.9200000,0.9200000,0.9200000,-0.0195269,-0.0036803,-0.3002990,-0.0195269,-0.0258883,-0.0433919
0.9225000,0.9225000,0.9225000,-0.0191995,-0.0036511,-0.2977981,-0.0191995,-0.0255330,-0.0426313
0.9250000,0.9250000,0.9250000,-0.0188785,-0.0036221,-0.2953250,-0.0188785,-0.0251839,-0.0418858
0.9275000,0.9275000,0.9275000,-0.0185638,-0.0035934,-0.2928795,-0.0185638,-0.0248410,-0.0411551
0.9300000,0.9300000,0.9300000,-0.0182552,-0.0035651,-0.2904610,-0.0182552,-0.0245040,-0.0404388
0.9325000,0.9325000,0.9325000,-0.0179525,-0.0035370,-0.2880692,-0.0179525,-0.0241728,-0.0397365
0.9350000,0.9350000,0.9350000,-0.0176558,-0.0035092,-0.2857038,-0.0176558,-0.0238474,-0.0390480
0.9375000,0.9375000,0.9375000,-0.0173647,-0.0034817,-0.2833644,-0.0173647,-0.0235276,-0.0383730
0.9400000,0.9400000,0.9400000,-0.0170793,-0.0034544,-0.2810506,-0.0170793,-0.0232133,-0.0377112
0.9425000,0.9425000,0.9425000,-0.0167993,-0.0034275,-0.2787621,-0.0167993,-0.0229044,-0.0370623
0.9450000,0.9450000,0.9450000,-0.0165247,-0.0034008,-0.2764985,-0.0165247,-0.0226008,-0.0364259
0.9475000,0.9475000,0.9475000,-0.0162554,-0.0033744,-0.2742595,-0.0162554,-0.0223023,-0.0358019
0.9500000,0.9500000,0.9500000,-0.0159912,-0.0033482,-0.2720447,-0.0159912,-0.0220089,-0.0351899
0.9525000,0.9525000,0.9525000,-0.0157319,-0.0033223,-0.2698538,-0.0157319,-0.0217205,-0.0345897
0.9550000,0.9550000,0.9550000,-0.0154776,-0.0032967,-0.2676866,-0.0154776,-0.0214369,-0.0340011
0.9575000,0.9575000,0.9575000,-0.0152281,-0.0032713,-0.2655426,-0.0152281,-0.0211581,-0.0334237
0.9600000,0.9600000,0.9600000,-0.0149833,-0.0032462,-0.2634216,-0.0149833,-0.0208840,-0.0328574
0.9625000,0.9625000,0.9625000,-0.0147431,-0.0032214,-0.2613233,-0.0147431,-0.0206144,-0.0323019
0.9650000,0.9650000,0.9650000,-0.0145074,-0.0031967,-0.2592473,-0.0145074,-0.0203493,-0.0317569
0.9675000,0.9675000,0.9675000,-0.0142761,-0.0031724,-0.2571934,-0.0142761,-0.0200886,-0.0312223
0.9700000,0.9700000,0.9700000,-0.0140490,-0.0031483,-0.2551612,-0.0140490,-0.0198322,-0.0306978
0.9725000,0.9725000,0.9725000,-0.0138262,-0.0031244,-0.2531506,-0.0138262,-0.0195800,-0.0301832
0.9750000,0.9750000,0.9750000,-0.0136076,-0.0031007,-0.2511611,-0.0136076,-0.0193319,-0.0296784
0.9775000,0.9775000,0.9775000,-0.0133929,-0.0030773,-0.2491925,-0.0133929,-0.0190880,-0.0291830
0.9800000,0.9800000,0.9800000,-0.0131823,-0.0030541,-0.2472445,-0.0131823,-0.0188479,-0.0286968
0.9825000,0.9825000,0.9825000,-0.0129755,-0.0030312,-0.2453169,-0.0129755,-0.0186118,-0.0282198
0.9850000,0.9850000,0.9850000,-0.0127724,-0.0030084,-0.2434094,-0.0127724,-0.0183795,-0.0277517
0.9875000,0.9875000,0.9875000,-0.0125731,-0.0029859,-0.2415218,-0.0125731,-0.0181509,-0.0272923
0.9900000,0.9900000,0.9900000,-0.0123775,-0.0029636,-0.2396537,-0.0123775,-0.0179260,-0.0268414
0.9925000,0.9925000,0.9925000,-0.0121853,-0.0029416,-0.2378049,-0.0121853,-0.0177048,-0.0263988
0.9950000,0.9950000,0.9950000,-0.0119967,-0.0029197,-0.2359752,-0.0119967,-0.0174870,-0.0259645
0.9975000,0.9975000,0.9975000,-0.0118115,-0.0028981,-0.2341644,-0.0118115,-0.0172727,-0.0255381
1.0000000,1.0000000,1.0000000,-0.0116296,-0.0028766,-0.2323721,-0.0116296,-0.0170618,-0.0251196
1.0025000,1.0025000,1.0025000,-0.0114510,-0.0028554,-0.2305982,-0.0114510,-0.0168543,-0.0247087
1.0050000,1.0050000,1.0050000,-0.0112756,-0.0028344,-0.2288423,-0.0112756,-0.0166500,-0.0243054
1.0075000,1.0075000,1.0075000,-0.0111033,-0.0028136,-0.2271044,-0.0111033,-0.0164489,-0.0239095
1.0100000,1.0100000,1.0100000,-0.0109341,-0.0027929,-0.2253841,-0.0109341,-0.0162510,-0.0235207
1.0125000,1.0125000,1.0125000,-0.0107679,-0.0027725,-0.2236812,-0.0107679,-0.0160561,-0.0231390
1.0150000,1.0150000,1.0150000,-0.0106047,-0.0027523,-0.2219955,-0.0106047,-0.0158643,-0.0227642
1.0175000,1.0175000,1.0175000,-0.0104443,-0.0027323,-0.2203268,-0.0104443,-0.0156755,-0.0223963
1.0200000,1.0200000,1.0200000,-0.0102868,-0.0027124,-0.2186749,-0.0102868,-0.0154896,-0.0220349
1.0225000,1.0225000,1.0225000,-0.0101320,-0.0026928,-0.2170395,-0.0101320,-0.0153065,-0.0216800
1.0250000,1.0250000,1.0250000,-0.0099800,-0.0026733,-0.2154205,-0.0099800,-0.0151263,-0.0213316
1.0275000,1.0275000,1.0275000,-0.0098307,-0.0026540,-0.2138176,-0.0098307,-0.0149488,-0.0209893
1.0300000,1.0300000,1.0300000,-0.0096839,-0.0026349,-0.2122307,-0.0096839,-0.0147740,-0.0206532
1.0325000,1.0325000,1.0325000,-0.0095397,-0.0026160,-0.2106595,-0.0095397,-0.0146019,-0.0203231
1.0350000,1.0350000,1.0350000,-0.0093980,-0.0025973,-0.2091039,-0.0093980,-0.0144323,-0.0199988
1.0375000,1.0375000,1.0375000,-0.0092588,-0.0025787,-0.2075636,-0.0092588,-0.0142654,-0.0196804
1.0400000,1.0400000,1.0400000,-0.0091220,-0.0025603,-0.2060385,-0.0091220,-0.0141009,-0.0193675
1.0425000,1.0425000,1.0425000,-0.0089875,-0.0025421,-0.2045283,-0.0089875,-0.0139390,-0.0190602
1.0450000,1.0450000,1.0450000,-0.0088554,-0.0025241,-0.2030330,-0.0088554,-0.0137794,-0.0187583
1.0475000,1.0475000,1.0475000,-0.0087255,-0.0025062,-0.2015523,-0.0087255,-0.0136222,-0.0184617
1.0500000,1.0500000,1.0500000,-0.0085979,-0.0024885,-0.2000860,-0.0085979,-0.0134674,-0.0181703
1.0525000,1.0525000,1.0525000,-0.0084724,-0.0024709,-0.1986340,-0.0084724,-0.0133149,-0.0178840
1.0550000,1.0550000,1.0550000,-0.0083491,-0.0024536,-0.1971961,-0.0083491,-0.0131646,-0.0176027
1.0575000,1.0575000,1.0575000,-0.0082278,-0.0024363,-0.1957720,-0.0082278,-0.0130165,-0.0173264
1.0600000,1.0600000,1.0600000,-0.0081087,-0.0024193,-0.1943618,-0.0081087,-0.0128706,-0.0170548
1.0625000,1.0625000,1.0625000,-0.0079915,-0.0024024,-0.1929651,-0.0079915,-0.0127268,-0.0167879
1.0650000,1.0650000,1.0650000,-0.0078763,-0.0023856,-0.1915818,-0.0078763,-0.0125851,-0.0165257
1.0675000,1.0675000,1.0675000,-0.0077631,-0.0023690,-0.1902117,-0.0077631,-0.0124455,-0.0162680
1.0700000,1.0700000,1.0700000,-0.0076517,-0.0023526,-0.1888548,-0.0076517,-0.0123079,-0.0160148
1.0725000,1.0725000,1.0725000,-0.0075423,-0.0023363,-0.1875108,-0.0075423,-0.0121723,-0.0157659
1.0750000,1.0750000,1.0750000,-0.0074346,-0.0023201,-0.1861796,-0.0074346,-0.0120387,-0.0155212
1.0775000,1.0775000,1.0775000,-0.0073287,-0.0023041,-0.1848610,-0.0073287,-0.0119070,-0.0152808
1.0800000,1.0800000,1.0800000,-0.0072247,-0.0022883,-0.1835549,-0.0072247,-0.0117771,-0.0150445
1.0825000,1.0825000,1.0825000,-0.0071223,-0.0022726,-0.1822612,-0.0071223,-0.0116491,-0.0148122
1.0850000,1.0850000,1.0850000,-0.0070216,-0.0022570,-0.1809796,-0.0070216,-0.0115230,-0.0145839
1.0875000,1.0875000,1.0875000,-0.0069226,-0.0022416,-0.1797100,-0.0069226,-0.0113986,-0.0143594
1.0900000,1.0900000,1.0900000,-0.0068252,-0.0022263,-0.1784524,-0.0068252,-0.0112760,-0.0141387
1.0925000,1.0925000,1.0925000,-0.0067294,-0.0022111,-0.1772065,-0.0067294,-0.0111551,-0.0139218
1.0950000,1.0950000,1.0950000,-0.0066352,-0.0021961,-0.1759723,-0.0066352,-0.0110359,-0.0137086
1.0975000,1.0975000,1.0975000,-0.0065426,-0.0021812,-0.1747495,-0.0065426,-0.0109184,-0.0134989
1.1000000,1.1000000,1.1000000,-0.0064514,-0.0021665,-0.1735381,-0.0064514,-0.0108025,-0.0132928
1.1025000,1.1025000,1.1025000,-0.0063617,-0.0021519,-0.1723379,-0.0063617,-0.0106882,-0.0130901
1.1050000,1.1050000,1.1050000,-0.0062735,-0.0021374,-0.1711488,-0.0062735,-0.0105755,-0.0128908
1.1075000,1.1075000,1.1075000,-0.0061867,-0.0021230,-0.1699707,-0.0061867,-0.0104644,-0.0126948
1.1100000,1.1100000,1.1100000,-0.0061013,-0.0021088,-0.1688034,-0.0061013,-0.0103548,-0.0125021
1.1125000,1.1125000,1.1125000,-0.0060173,-0.0020947,-0.1676468,-0.0060173,-0.0102467,-0.0123126
1.1150000,1.1150000,1.1150000,-0.0059346,-0.0020807,-0.1665008,-0.0059346,-0.0101401,-0.0121263
1.1175000,1.1175000,1.1175000,-0.0058533,-0.0020669,-0.1653653,-0.0058533,-0.0100350,-0.0119430
1.1200000,1.1200000,1.1200000,-0.0057733,-0.0020531,-0.1642401,-0.0057733,-0.0099313,-0.0117628
1.1225000,1.1225000,1.1225000,-0.0056945,-0.0020395,-0.1631252,-0.0056945,-0.0098290,-0.0115855
1.1250000,1.1250000,1.1250000,-0.0056170,-0.0020260,-0.1620204,-0.0056170,-0.0097281,-0.0114112
1.1275000,1.1275000,1.1275000,-0.0055407,-0.0020127,-0.1609255,-0.0055407,-0.0096285,-0.0112397
1.1300000,1.1300000,1.1300000,-0.0054657,-0.0019994,-0.1598406,-0.0054657,-0.0095303,-0.0110711
1.1325000,1.1325000,1.1325000,-0.0053918,-0.0019862,-0.1587654,-0.0053918,-0.0094334,-0.0109052
1.1350000,1.1350000,1.1350000,-0.0053191,-0.0019732,-0.1576999,-0.0053191,-0.0093378,-0.0107420
1.1375000,1.1375000,1.1375000,-0.0052475,-0.0019603,-0.1566439,-0.0052475,-0.0092435,-0.0105815
1.1400000,1.1400000,1.1400000,-0.0051771,-0.0019475,-0.1555974,-0.0051771,-0.0091505,-0.0104236
1.1425000,1.1425000,1.1425000,-0.0051078,-0.0019348,-0.1545603,-0.0051078,-0.0090586,-0.0102682
1.1450000,1.1450000,1.1450000,-0.0050395,-0.0019222,-0.1535323,-0.0050395,-0.0089680,-0.0101154
1.1475000,1.1475000,1.1475000,-0.0049723,-0.0019097,-0.1525135,-0.0049723,-0.0088786,-0.0099650
1.1500000,1.1500000,1.1500000,-0.0049062,-0.0018974,-0.1515038,-0.0049062,-0.0087904,-0.0098171
1.1525000,1.1525000,1.1525000,-0.0048411,-0.0018851,-0.1505029,-0.0048411,-0.0087033,-0.0096715
1.1550000,1.1550000,1.1550000,-0.0047770,-0.0018729,-0.1495109,-0.0047770,-0.0086173,-0.0095283
1.1575000,1.1575000,1.1575000,-0.0047139,-0.0018609,-0.1485277,-0.0047139,-0.0085325,-0.0093874
1.1600000,1.1600000,1.1600000,-0.0046517,-0.0018489,-0.1475530,-0.0046517,-0.0084488,-0.0092487
1.1625000,1.1625000,1.1625000,-0.0045906,-0.0018371,-0.1465870,-0.0045906,-0.0083661,-0.0091123
1.1650000,1.1650000,1.1650000,-0.0045303,-0.0018253,-0.1456293,-0.0045303,-0.0082846,-0.0089780
1.1675000,1.1675000,1.1675000,-0.0044710,-0.0018137,-0.1446800,-0.0044710,-0.0082041,-0.0088459
1.1700000,1.1700000,1.1700000,-0.0044126,-0.0018021,-0.1437390,-0.0044126,-0.0081246,-0.0087159
1.1725000,1.1725000,1.1725000,-0.0043551,-0.0017907,-0.1428062,-0.0043551,-0.0080461,-0.0085879
1.1750000,1.1750000,1.1750000,-0.0042984,-0.0017793,-0.1418815,-0.0042984,-0.0079686,-0.0084620
1.1775000,1.1775000,1.1775000,-0.0042426,-0.0017680,-0.1409647,-0.0042426,-0.0078922,-0.0083381
1.1800000,1.1800000,1.1800000,-0.0041877,-0.0017569,-0.1400559,-0.0041877,-0.0078167,-0.0082161
1.1825000,1.1825000,1.1825000,-0.0041336,-0.0017458,-0.1391549,-0.0041336,-0.0077421,-0.0080960
1.1850000,1.1850000,1.1850000,-0.0040803,-0.0017348,-0.1382616,-0.0040803,-0.0076685,-0.0079778
1.1875000,1.1875000,1.1875000,-0.0040278,-0.0017239,-0.1373760,-0.0040278,-0.0075958,-0.0078615
1.1900000,1.1900000,1.1900000,-0.0039761,-0.0017131,-0.1364980,-0.0039761,-0.0075241,-0.0077470
1.1925000,1.1925000,1.1925000,-0.0039252,-0.0017024,-0.1356274,-0.0039252,-0.0074532,-0.0076343
1.1950000,1.1950000,1.1950000,-0.0038750,-0.0016918,-0.1347643,-0.0038750,-0.0073832,-0.0075233
1.1975000,1.1975000,1.1975000,-0.0038256,-0.0016812,-0.1339085,-0.0038256,-0.0073141,-0.0074141
1.2000000,1.2000000,1.2000000,-0.0037769,-0.0016708,-0.1330600,-0.0037769,-0.0072458,-0.0073066
1.2025000,1.2025000,1.2025000,-0.0037290,-0.0016604,-0.1322187,-0.0037290,-0.0071784,-0.0072007
1.2050000,1.2050000,1.2050000,-0.0036817,-0.0016502,-0.1313844,-0.0036817,-0.0071118,-0.0070965
1.2075000,1.2075000,1.2075000,-0.0036352,-0.0016400,-0.1305572,-0.0036352,-0.0070461,-0.0069939
1.2100000,1.2100000,1.2100000,-0.0035893,-0.0016298,-0.1297370,-0.0035893,-0.0069811,-0.0068929
1.2125000,1.2125000,1.2125000,-0.0035441,-0.0016198,-0.1289236,-0.0035441,-0.0069170,-0.0067934
1.2150000,1.2150000,1.2150000,-0.0034996,-0.0016099,-0.1281171,-0.0034996,-0.0068536,-0.0066955
1.2175000,1.2175000,1.2175000,-0.0034557,-0.0016000,-0.1273173,-0.0034557,-0.0067910,-0.0065991
1.2200000,1.2200000,1.2200000,-0.0034125,-0.0015902,-0.1265241,-0.0034125,-0.0067291,-0.0065041
1.2225000,1.2225000,1.2225000,-0.0033699,-0.0015805,-0.1257376,-0.0033699,-0.0066680,-0.0064106
1.2250000,1.2250000,1.2250000,-0.0033280,-0.0015709,-0.1249576,-0.0033280,-0.0066077,-0.0063185
1.2275000,1.2275000,1.2275000,-0.0032866,-0.0015613,-0.1241840,-0.0032866,-0.0065480,-0.0062279
1.2300000,1.2300000,1.2300000,-0.0032458,-0.0015519,-0.1234168,-0.0032458,-0.0064891,-0.0061386
1.2325000,1.2325000,1.2325000,-0.0032057,-0.0015425,-0.1226560,-0.0032057,-0.0064309,-0.0060506
1.2350000,1.2350000,1.2350000,-0.0031661,-0.0015331,-0.1219015,-0.0031661,-0.0063734,-0.0059640
1.2375000,1.2375000,1.2375000,-0.0031270,-0.0015239,-0.1211531,-0.0031270,-0.0063166,-0.0058788
1.2400000,1.2400000,1.2400000,-0.0030886,-0.0015147,-0.1204109,-0.0030886,-0.0062604,-0.0057948
1.2425000,1.2425000,1.2425000,-0.0030507,-0.0015056,-0.1196747,-0.0030507,-0.0062049,-0.0057120
1.2450000,1.2450000,1.2450000,-0.0030133,-0.0014966,-0.1189446,-0.0030133,-0.0061501,-0.0056305
1.2475000,1.2475000,1.2475000,-0.0029765,-0.0014876,-0.1182204,-0.0029765,-0.0060959,-0.0055503
1.2500000,1.2500000,1.2500000,-0.0029402,-0.0014788,-0.1175020,-0.0029402,-0.0060423,-0.0054712
1.2525000,1.2525000,1.2525000,-0.0029044,-0.0014699,-0.1167896,-0.0029044,-0.0059894,-0.0053934
1.2550000,1.2550000,1.2550000,-0.0028691,-0.0014612,-0.1160829,-0.0028691,-0.0059371,-0.0053167
1.2575000,1.2575000,1.2575000,-0.0028343,-0.0014525,-0.1153819,-0.0028343,-0.0058854,-0.0052411
1.2600000,1.2600000,1.2600000,-0.0028001,-0.0014439,-0.1146865,-0.0028001,-0.0058343,-0.0051667
1.2625000,1.2625000,1.2625000,-0.0027663,-0.0014354,-0.1139968,-0.0027663,-0.0057838,-0.0050934
1.2650000,1.2650000,1.2650000,-0.0027329,-0.0014269,-0.1133125,-0.0027329,-0.0057338,-0.0050211
1.2675000,1.2675000,1.2675000,-0.0027001,-0.0014185,-0.1126338,-0.0027001,-0.0056845,-0.0049500
1.2700000,1.2700000,1.2700000,-0.0026677,-0.0014102,-0.1119605,-0.0026677,-0.0056357,-0.0048799
1.2725000,1.2725000,1.2725000,-0.0026357,-0.0014019,-0.1112926,-0.0026357,-0.0055875,-0.0048108
1.2750000,1.2750000,1.2750000,-0.0026042,-0.0013937,-0.1106300,-0.0026042,-0.0055398,-0.0047428
1.2775000,1.2775000,1.2775000,-0.0025732,-0.0013855,-0.1099726,-0.0025732,-0.0054927,-0.0046757
1.2800000,1.2800000,1.2800000,-0.0025426,-0.0013774,-0.1093205,-0.0025426,-0.0054461,-0.0046097
1.2825000,1.2825000,1.2825000,-0.0025124,-0.0013694,-0.1086736,-0.0025124,-0.0054000,-0.0045446
1.2850000,1.2850000,1.2850000,-0.0024826,-0.0013615,-0.1080317,-0.0024826,-0.0053544,-0.0044805
1.2875000,1.2875000,1.2875000,-0.0024532,-0.0013536,-0.1073949,-0.0024532,-0.0053094,-0.0044173
1.2900000,1.2900000,1.2900000,-0.0024243,-0.0013457,-0.1067632,-0.0024243,-0.0052649,-0.0043550
1.2925000,1.2925000,1.2925000,-0.0023957,-0.0013380,-0.1061364,-0.0023957,-0.0052208,-0.0042937
1.2950000,1.2950000,1.2950000,-0.0023675,-0.0013302,-0.1055145,-0.0023675,-0.0051773,-0.0042332
1.2975000,1.2975000,1.2975000,-0.0023397,-0.0013226,-0.1048974,-0.0023397,-0.0051342,-0.0041736
1.3000000,1.3000000,1.3000000,-0.0023123,-0.0013150,-0.1042852,-0.0023123,-0.0050917,-0.0041149
1.3025000,1.3025000,1.3025000,-0.0022853,-0.0013074,-0.1036778,-0.0022853,-0.0050496,-0.0040570
1.3050000,1.3050000,1.3050000,-0.0022587,-0.0012999,-0.1030750,-0.0022587,-0.0050079,-0.0040000
1.3075000,1.3075000,1.3075000,-0.0022324,-0.0012925,-0.1024770,-0.0022324,-0.0049668,-0.0039438
1.3100000,1.3100000,1.3100000,-0.0022064,-0.0012851,-0.1018836,-0.0022064,-0.0049260,-0.0038884
1.3125000,1.3125000,1.3125000,-0.0021808,-0.0012778,-0.1012948,-0.0021808,-0.0048858,-0.0038339
1.3150000,1.3150000,1.3150000,-0.0021556,-0.0012706,-0.1007105,-0.0021556,-0.0048459,-0.0037801
1.3175000,1.3175000,1.3175000,-0.0021307,-0.0012634,-0.1001307,-0.0021307,-0.0048065,-0.0037270
1.3200000,1.3200000,1.3200000,-0.0021061,-0.0012562,-0.0995554,-0.0021061,-0.0047675,-0.0036748
1.3225000,1.3225000,1.3225000,-0.0020819,-0.0012491,-0.0989845,-0.0020819,-0.0047290,-0.0036233
1.3250000,1.3250000,1.3250000,-0.0020580,-0.0012421,-0.0984180,-0.0020580,-0.0046909,-0.0035725
1.3275000,1.3275000,1.3275000,-0.0020344,-0.0012351,-0.0978558,-0.0020344,-0.0046531,-0.0035225
1.3300000,1.3300000,1.3300000,-0.0020111,-0.0012281,-0.0972978,-0.0020111,-0.0046158,-0.0034731
1.3325000,1.3325000,1.3325000,-0.0019882,-0.0012213,-0.0967442,-0.0019882,-0.0045789,-0.0034245
1.3350000,1.3350000,1.3350000,-0.0019655,-0.0012144,-0.0961947,-0.0019655,-0.0045424,-0.0033766
1.3375000,1.3375000,1.3375000,-0.0019432,-0.0012076,-0.0956494,-0.0019432,-0.0045063,-0.0033293
1.3400000,1.3400000,1.3400000,-0.0019211,-0.0012009,-0.0951082,-0.0019211,-0.0044705,-0.0032827
1.3425000,1.3425000,1.3425000,-0.0018994,-0.0011942,-0.0945711,-0.0018994,-0.0044352,-0.0032368
1.3450000,1.3450000,1.3450000,-0.0018779,-0.0011876,-0.0940381,-0.0018779,-0.0044002,-0.0031915
1.3475000,1.3475000,1.3475000,-0.0018567,-0.0011810,-0.0935091,-0.0018567,-0.0043656,-0.0031469
1.3500000,1.3500000,1.3500000,-0.0018358,-0.0011744,-0.0929840,-0.0018358,-0.0043313,-0.0031029
1.3525000,1.3525000,1.3525000,-0.0018151,-0.0011680,-0.0924629,-0.0018151,-0.0042974,-0.0030595
1.3550000,1.3550000,1.3550000,-0.0017948,-0.0011615,-0.0919457,-0.0017948,-0.0042639,-0.0030168
1.3575000,1.3575000,1.3575000,-0.0017747,-0.0011551,-0.0914323,-0.0017747,-0.0042307,-0.0029746
1.3600000,1.3600000,1.3600000,-0.0017548,-0.0011488,-0.0909228,-0.0017548,-0.0041979,-0.0029330
1.3625000,1.3625000,1.3625000,-0.0017352,-0.0011425,-0.0904170,-0.0017352,-0.0041654,-0.0028920
1.3650000,1.3650000,1.3650000,-0.0017159,-0.0011362,-0.0899151,-0.0017159,-0.0041333,-0.0028516
1.3675000,1.3675000,1.3675000,-0.0016969,-0.0011300,-0.0894168,-0.0016969,-0.0041014,-0.0028118
1.3700000,1.3700000,1.3700000,-0.0016780,-0.0011238,-0.0889222,-0.0016780,-0.0040699,-0.0027725
1.3725000,1.3725000,1.3725000,-0.0016594,-0.0011177,-0.0884313,-0.0016594,-0.0040388,-0.0027337
1.3750000,1.3750000,1.3750000,-0.0016411,-0.0011116,-0.0879440,-0.0016411,-0.0040079,-0.0026955
1.3775000,1.3775000,1.3775000,-0.0016230,-0.0011056,-0.0874603,-0.0016230,-0.0039774,-0.0026578
1.3800000,1.3800000,1.3800000,-0.0016051,-0.0010996,-0.0869801,-0.0016051,-0.0039472,-0.0026207
1.3825000,1.3825000,1.3825000,-0.0015875,-0.0010937,-0.0865034,-0.0015875,-0.0039173,-0.0025841
1.3850000,1.3850000,1.3850000,-0.0015701,-0.0010878,-0.0860303,-0.0015701,-0.0038877,-0.0025479
1.3875000,1.3875000,1.3875000,-0.0015529,-0.0010819,-0.0855605,-0.0015529,-0.0038584,-0.0025123
1.3900000,1.3900000,1.3900000,-0.0015359,-0.0010761,-0.0850943,-0.0015359,-0.0038294,-0.0024772
1.3925000,1.3925000,1.3925000,-0.0015191,-0.0010703,-0.0846314,-0.0015191,-0.0038007,-0.0024425
1.3950000,1.3950000,1.3950000,-0.0015026,-0.0010646,-0.0841718,-0.0015026,-0.0037722,-0.0024083
1.3975000,1.3975000,1.3975000,-0.0014863,-0.0010589,-0.0837156,-0.0014863,-0.0037441,-0.0023746
1.4000000,1.4000000,1.4000000,-0.0014701,-0.0010532,-0.0832627,-0.0014701,-0.0037163,-0.0023414
1.4025000,1.4025000,1.4025000,-0.0014542,-0.0010476,-0.0828131,-0.0014542,-0.0036887,-0.0023086
1.4050000,1.4050000,1.4050000,-0.0014385,-0.0010420,-0.0823667,-0.0014385,-0.0036614,-0.0022763
1.4075000,1.4075000,1.4075000,-0.0014230,-0.0010365,-0.0819235,-0.0014230,-0.0036344,-0.0022444
1.4100000,1.4100000,1.4100000,-0.0014077,-0.0010310,-0.0814835,-0.0014077,-0.0036076,-0.0022129
1.4125000,1.4125000,1.4125000,-0.0013925,-0.0010255,-0.0810467,-0.0013925,-0.0035811,-0.0021819
1.4150000,1.4150000,1.4150000,-0.0013776,-0.0010201,-0.0806129,-0.0013776,-0.0035549,-0.0021513
1.4175000,1.4175000,1.4175000,-0.0013628,-0.0010147,-0.0801823,-0.0013628,-0.0035289,-0.0021211
1.4200000,1.4200000,1.4200000,-0.0013483,-0.0010094,-0.0797548,-0.0013483,-0.0035032,-0.0020914
1.4225000,1.4225000,1.4225000,-0.0013339,-0.0010041,-0.0793303,-0.0013339,-0.0034777,-0.0020620
1.4250000,1.4250000,1.4250000,-0.0013197,-0.0009988,-0.0789088,-0.0013197,-0.0034525,-0.0020330
1.4275000,1.4275000,1.4275000,-0.0013056,-0.0009936,-0.0784903,-0.0013056,-0.0034275,-0.0020045
1.4300000,1.4300000,1.4300000,-0.0012918,-0.0009884,-0.0780747,-0.0012918,-0.0034028,-0.0019763
1.4325000,1.4325000,1.4325000,-0.0012781,-0.0009832,-0.0776621,-0.0012781,-0.0033783,-0.0019485
1.4350000,1.4350000,1.4350000,-0.0012646,-0.0009781,-0.0772524,-0.0012646,-0.0033541,-0.0019210
1.4375000,1.4375000,1.4375000,-0.0012512,-0.0009730,-0.0768456,-0.0012512,-0.0033301,-0.0018940
1.4400000,1.4400000,1.4400000,-0.0012380,-0.0009680,-0.0764417,-0.0012380,-0.0033063,-0.0018673
1.4425000,1.4425000,1.4425000,-0.0012250,-0.0009629,-0.0760405,-0.0012250,-0.0032828,-0.0018409
1.4450000,1.4450000,1.4450000,-0.0012121,-0.0009580,-0.0756422,-0.0012121,-0.0032594,-0.0018150
1.4475000,1.4475000,1.4475000,-0.0011994,-0.0009530,-0.0752467,-0.0011994,-0.0032363,-0.0017893
1.4500000,1.4500000,1.4500000,-0.0011869,-0.0009481,-0.0748539,-0.0011869,-0.0032135,-0.0017640
1.4525000,1.4525000,1.4525000,-0.0011745,-0.0009432,-0.0744639,-0.0011745,-0.0031908,-0.0017391
1.4550000,1.4550000,1.4550000,-0.0011622,-0.0009384,-0.0740766,-0.0011622,-0.0031683,-0.0017145
1.4575000,1.4575000,1.4575000,-0.0011501,-0.0009335,-0.0736920,-0.0011501,-0.0031461,-0.0016902
1.4600000,1.4600000,1.4600000,-0.0011382,-0.0009288,-0.0733100,-0.0011382,-0.0031241,-0.0016662
1.4625000,1.4625000,1.4625000,-0.0011264,-0.0009240,-0.0729307,-0.0011264,-0.0031023,-0.0016426
1.4650000,1.4650000,1.4650000,-0.0011147,-0.0009193,-0.0725540,-0.0011147,-0.0030807,-0.0016193
1.4675000,1.4675000,1.4675000,-0.0011032,-0.0009146,-0.0721799,-0.0011032,-0.0030593,-0.0015963
1.4700000,1.4700000,1.4700000,-0.0010918,-0.0009099,-0.0718084,-0.0010918,-0.0030381,-0.0015736
1.4725000,1.4725000,1.4725000,-0.0010805,-0.0009053,-0.0714394,-0.0010805,-0.0030171,-0.0015512
1.4750000,1.4750000,1.4750000,-0.0010694,-0.0009007,-0.0710729,-0.0010694,-0.0029963,-0.0015291
1.4775000,1.4775000,1.4775000,-0.0010585,-0.0008962,-0.0707090,-0.0010585,-0.0029756,-0.0015072
1.4800000,1.4800000,1.4800000,-0.0010476,-0.0008916,-0.0703475,-0.0010476,-0.0029552,-0.0014857
1.4825000,1.4825000,1.4825000,-0.0010369,-0.0008871,-0.0699886,-0.0010369,-0.0029350,-0.0014645
1.4850000,1.4850000,1.4850000,-0.0010263,-0.0008827,-0.0696320,-0.0010263,-0.0029149,-0.0014435
1.4875000,1.4875000,1.4875000,-0.0010158,-0.0008782,-0.0692779,-0.0010158,-0.0028951,-0.0014228
1.4900000,1.4900000,1.4900000,-0.0010055,-0.0008738,-0.0689262,-0.0010055,-0.0028754,-0.0014024
1.4925000,1.4925000,1.4925000,-0.0009953,-0.0008694,-0.0685769,-0.0009953,-0.0028559,-0.0013823
1.4950000,1.4950000,1.4950000,-0.0009852,-0.0008651,-0.0682299,-0.0009852,-0.0028366,-0.0013624
1.4975000,1.4975000,1.4975000,-0.0009752,-0.0008608,-0.0678853,-0.0009752,-0.0028174,-0.0013428
1.5000000,1.5000000,1.5000000,-0.0009654,-0.0008565,-0.0675430,-0.0009654,-0.0027985,-0.0013235
1.5025000,1.5025000,1.5025000,-0.0009556,-0.0008522,-0.0672030,-0.0009556,-0.0027797,-0.0013044
1.5050000,1.5050000,1.5050000,-0.0009460,-0.0008480,-0.0668652,-0.0009460,-0.0027611,-0.0012855
1.5075000,1.5075000,1.5075000,-0.0009365,-0.0008438,-0.0665298,-0.0009365,-0.0027426,-0.0012669
1.5100000,1.5100000,1.5100000,-0.0009271,-0.0008396,-0.0661966,-0.0009271,-0.0027243,-0.0012485
1.5125000,1.5125000,1.5125000,-0.0009178,-0.0008354,-0.0658656,-0.0009178,-0.0027062,-0.0012304
1.5150000,1.5150000,1.5150000,-0.0009086,-0.0008313,-0.0655368,-0.0009086,-0.0026882,-0.0012125
1.5175000,1.5175000,1.5175000,-0.0008995,-0.0008272,-0.0652103,-0.0008995,-0.0026704,-0.0011949
1.5200000,1.5200000,1.5200000,-0.0008906,-0.0008231,-0.0648859,-0.0008906,-0.0026528,-0.0011775
1.5225000,1.5225000,1.5225000,-0.0008817,-0.0008191,-0.0645636,-0.0008817,-0.0026353,-0.0011603
1.5250000,1.5250000,1.5250000,-0.0008729,-0.0008151,-0.0642435,-0.0008729,-0.0026180,-0.0011433
1.5275000,1.5275000,1.5275000,-0.0008643,-0.0008111,-0.0639255,-0.0008643,-0.0026008,-0.0011266
1.5300000,1.5300000,1.5300000,-0.0008557,-0.0008071,-0.0636096,-0.0008557,-0.0025838,-0.0011101
1.5325000,1.5325000,1.5325000,-0.0008473,-0.0008032,-0.0632958,-0.0008473,-0.0025669,-0.0010937
1.5350000,1.5350000,1.5350000,-0.0008389,-0.0007993,-0.0629840,-0.0008389,-0.0025502,-0.0010776
1.5375000,1.5375000,1.5375000,-0.0008306,-0.0007954,-0.0626743,-0.0008306,-0.0025336,-0.0010617
1.5400000,1.5400000,1.5400000,-0.0008225,-0.0007915,-0.0623666,-0.0008225,-0.0025172,-0.0010461
1.5425000,1.5425000,1.5425000,-0.0008144,-0.0007877,-0.0620610,-0.0008144,-0.0025009,-0.0010306
1.5450000,1.5450000,1.5450000,-0.0008064,-0.0007838,-0.0617573,-0.0008064,-0.0024848,-0.0010153
1.5475000,1.5475000,1.5475000,-0.0007985,-0.0007801,-0.0614556,-0.0007985,-0.0024688,-0.0010002
1.5500000,1.5500000,1.5500000,-0.0007907,-0.0007763,-0.0611559,-0.0007907,-0.0024530,-0.0009853
1.5525000,1.5525000,1.5525000,-0.0007830,-0.0007725,-0.0608582,-0.0007830,-0.0024372,-0.0009706
1.5550000,1.5550000,1.5550000,-0.0007754,-0.0007688,-0.0605623,-0.0007754,-0.0024216,-0.0009561
1.5575000,1.5575000,1.5575000,-0.0007678,-0.0007651,-0.0602684,-0.0007678,-0.0024062,-0.0009418
1.5600000,1.5600000,1.5600000,-0.0007604,-0.0007615,-0.0599764,-0.0007604,-0.0023909,-0.0009277
1.5625000,1.5625000,1.5625000,-0.0007530,-0.0007578,-0.0596863,-0.0007530,-0.0023757,-0.0009137
1.5650000,1.5650000,1.5650000,-0.0007457,-0.0007542,-0.0593981,-0.0007457,-0.0023607,-0.0008999
1.5675000,1.5675000,1.5675000,-0.0007385,-0.0007506,-0.0591117,-0.0007385,-0.0023457,-0.0008863
1.5700000,1.5700000,1.5700000,-0.0007314,-0.0007470,-0.0588272,-0.0007314,-0.0023309,-0.0008729
1.5725000,1.5725000,1.5725000,-0.0007243,-0.0007435,-0.0585444,-0.0007243,-0.0023163,-0.0008597
1.5750000,1.5750000,1.5750000,-0.0007174,-0.0007399,-0.0582635,-0.0007174,-0.0023017,-0.0008466
1.5775000,1.5775000,1.5775000,-0.0007105,-0.0007364,-0.0579844,-0.0007105,-0.0022873,-0.0008337
1.5800000,1.5800000,1.5800000,-0.0007037,-0.0007329,-0.0577071,-0.0007037,-0.0022730,-0.0008209
1.5825000,1.5825000,1.5825000,-0.0006969,-0.0007295,-0.0574316,-0.0006969,-0.0022588,-0.0008083
1.5850000,1.5850000,1.5850000,-0.0006903,-0.0007260,-0.0571578,-0.0006903,-0.0022448,-0.0007959
1.5875000,1.5875000,1.5875000,-0.0006837,-0.0007226,-0.0568857,-0.0006837,-0.0022308,-0.0007836
1.5900000,1.5900000,1.5900000,-0.0006772,-0.0007192,-0.0566154,-0.0006772,-0.0022170,-0.0007715
1.5925000,1.5925000,1.5925000,-0.0006707,-0.0007158,-0.0563468,-0.0006707,-0.0022033,-0.0007596
1.5950000,1.5950000,1.5950000,-0.0006644,-0.0007125,-0.0560799,-0.0006644,-0.0021897,-0.0007478
1.5975000,1.5975000,1.5975000,-0.0006581,-0.0007091,-0.0558146,-0.0006581,-0.0021763,-0.0007361
