# r[nm],d[nm],daligned[nm],U(d)[kj/mol],V(d)[e/nm],Uslab(d)[kJ/mol],UC(d)[kJ/mol],UK(d)[kJ/mol],UCl(d)[kJ/mol]
0.1925000,0.1925000,0.1925000,1827.0468300,0.0027215,197.0105727,1827.0468300,1171.9929645,inf
0.1950000,0.1950000,0.1950000,1575.5302197,-0.0020303,170.9865943,1575.5302197,1009.5577270,inf
0.1975000,0.1975000,0.1975000,1361.1765676,-0.0062140,148.5942448,1361.1765676,871.1998991,inf
0.2000000,0.2000000,0.2000000,1178.1052563,-0.0099313,129.3059646,1178.1052563,753.1048213,inf
0.2025000,0.2025000,0.2025000,1021.4237477,-0.0132488,112.6678215,1021.4237477,652.0992460,inf
0.2050000,0.2050000,0.2050000,887.0541908,-0.0162136,98.2928126,887.0541908,565.5384636,inf
0.2075000,0.2075000,0.2075000,771.5906441,-0.0188622,85.8520974,771.5906441,491.2136789,inf
0.2100000,0.2100000,0.2100000,672.1820896,-0.0212248,75.0663098,672.1820896,427.2761556,inf
0.2125000,0.2125000,0.2125000,586.4366830,-0.0233280,65.6971960,586.4366830,372.1751106,inf
0.2150000,0.2150000,0.2150000,512.3433268,-0.0251959,57.5376250,512.3433268,324.6068229,inf
0.2175000,0.2175000,0.2175000,448.2073288,-0.0268510,50.3975711,448.2073288,283.4728709,1840.7900703
0.2200000,0.2200000,0.2200000,392.5975130,-0.0283138,44.0908743,392.5975130,247.8458010,1617.7253020
0.2225000,0.2225000,0.2225000,344.3026529,-0.0296037,38.4402189,344.3026529,216.9408476,1423.6197565
0.2250000,0.2250000,0.2250000,302.2955069,-0.0307382,33.3106210,302.2955069,190.0925914,1254.4331407
0.2275000,0.2275000,0.2275000,265.7030658,-0.0317334,28.6390326,265.7030658,166.7356531,1106.7285918
0.2300000,0.2300000,0.2300000,233.7818882,-0.0326035,24.4172939,233.7818882,146.3886898,977.5769314
0.2325000,0.2325000,0.2325000,205.8976098,-0.0333616,20.6483136,205.8976098,128.6411014,864.4767917
0.2350000,0.2350000,0.2350000,181.5078864,-0.0340189,17.3201130,181.5078864,113.1419646,765.2880989
0.2375000,0.2375000,0.2375000,160.1481640,-0.0345856,14.4039291,160.1481640,99.5908008,678.1765365
0.2400000,0.2400000,0.2400000,141.4197837,-0.0350705,11.8613753,141.4197837,87.7298585,601.5670574
0.2425000,0.2425000,0.2425000,124.9800175,-0.0354814,9.6511313,124.9800175,77.3376465,534.1048707
0.2450000,0.2450000,0.2450000,110.5337047,-0.0358253,7.7330059,110.5337047,68.2235043,474.6226239
0.2475000,0.2475000,0.2475000,97.8262156,-0.0361082,6.0699108,97.8262156,60.2230318,422.1127399
0.2500000,0.2500000,0.2500000,86.6375223,-0.0363354,4.6285985,86.6375223,53.1942325,375.7040581
0.2525000,0.2525000,0.2525000,76.7771894,-0.0365117,3.3797564,76.7771894,47.0142502,334.6420816
0.2550000,0.2550000,0.2550000,68.0801349,-0.0366415,2.2977970,68.0801349,41.5765997,298.2722516
0.2575000,0.2575000,0.2575000,60.4030333,-0.0367289,1.3605186,60.4030333,36.7888119,266.0257671
0.2600000,0.2600000,0.2600000,53.6212570,-0.0367782,0.5487228,53.6212570,32.5704311,237.4075475
0.2625000,0.2625000,0.2625000,47.6262682,-0.0367943,-0.1541703,47.6262682,28.8513116,211.9859970
0.2650000,0.2650000,0.2650000,42.3233901,-0.0367841,-0.7624879,42.3233901,25.5701772,189.3842892
0.2675000,0.2675000,0.2675000,37.6298974,-0.0367570,-1.2886371,37.6298974,22.6734075,169.2729309
0.2700000,0.2700000,0.2700000,33.4733807,-0.0367260,-1.7433934,33.4733807,20.1140230,151.3634069
0.2725000,0.2725000,0.2725000,29.7903451,-0.0367085,-2.1361410,29.7903451,17.8508386,135.4027373
0.2750000,0.2750000,0.2750000,26.5250145,-0.0367259,-2.4750666,26.5250145,15.8477554,121.1688080
0.2775000,0.2775000,0.2775000,23.6283150,-0.0368024,-2.7673151,23.6283150,14.0731632,108.4663564
0.2800000,0.2800000,0.2800000,21.0570152,-0.0369631,-3.0191214,21.0570152,12.4994239,97.1235145
0.2825000,0.2825000,0.2825000,18.7730018,-0.0372304,-3.2359308,18.7730018,11.1024164,86.9888260
0.2850000,0.2850000,0.2850000,16.7426678,-0.0376206,-3.4225140,16.7426678,9.8611239,77.9286688
0.2875000,0.2875000,0.2875000,14.9363932,-0.0381408,-3.5830715,14.9363932,8.7572542,69.8250222
0.2900000,0.2900000,0.2900000,13.3280978,-0.0387868,-3.7213178,13.3280978,7.7748883,62.5735304
0.2925000,0.2925000,0.2925000,11.8948488,-0.0395427,-3.8405431,11.8948488,6.9001558,56.0818182
0.2950000,0.2950000,0.2950000,10.6165099,-0.0403818,-3.9436537,10.6165099,6.1209409,50.2680243
0.2975000,0.2975000,0.2975000,9.4754220,-0.0412693,-4.0331954,9.4754220,5.4266196,45.0595204
0.3000000,0.3000000,0.3000000,8.4561085,-0.0421658,-4.1113653,8.4561085,4.8078322,40.3917916
0.3025000,0.3025000,0.3025000,7.5450040,-0.0430312,-4.1800135,7.5450040,4.2562912,36.2074575
0.3050000,0.3050000,0.3050000,6.7302040,-0.0438278,-4.2406432,6.7302040,3.7646217,32.4554170
0.3075000,0.3075000,0.3075000,6.0012377,-0.0445233,-4.2944177,6.0012377,3.3262320,29.0901027
0.3100000,0.3100000,0.3100000,5.3488656,-0.0450930,-4.3421825,5.3488656,2.9352072,26.0708337
0.3125000,0.3125000,0.3125000,4.7649033,-0.0455206,-4.3845054,4.7649033,2.5862226,23.3612551
0.3150000,0.3150000,0.3150000,4.2420706,-0.0457992,-4.4217318,4.2420706,2.2744703,20.9288553
0.3175000,0.3175000,0.3175000,3.7738657,-0.0459311,-4.4540480,3.7738657,1.9955997,18.7445481
0.3200000,0.3200000,0.3200000,3.3544600,-0.0459273,-4.4815464,3.3544600,1.7456679,16.7823120
0.3225000,0.3225000,0.3225000,2.9786107,-0.0458062,-4.5042863,2.9786107,1.5211042,15.0188749
0.3250000,0.3250000,0.3250000,2.6415862,-0.0455923,-4.5223420,2.6415862,1.3186871,13.4334368
0.3275000,0.3275000,0.3275000,2.3391027,-0.0453141,-4.5358354,2.3391027,1.1355332,12.0074222
0.3300000,0.3300000,0.3300000,2.0672715,-0.0450025,-4.5449500,2.0672715,0.9690962,10.7242571
0.3325000,0.3325000,0.3325000,1.8225561,-0.0446880,-4.5499300,1.8225561,0.8171693,9.5691662
0.3350000,0.3350000,0.3350000,1.6017417,-0.0443989,-4.5510687,1.6017417,0.6778846,8.5289865
0.3375000,0.3375000,0.3375000,1.4019175,-0.0441593,-4.5486923,1.4019175,0.5497038,7.5919953
0.3400000,0.3400000,0.3400000,1.2204687,-0.0439870,-4.5431425,1.2204687,0.4313947,6.7477508
0.3425000,0.3425000,0.3425000,1.0550771,-0.0438923,-4.5347577,1.0550771,0.3219938,5.9869453
0.3450000,0.3450000,0.3450000,0.9037235,-0.0438770,-4.5238534,0.9037235,0.2207598,5.3012704
0.3475000,0.3475000,0.3475000,0.7646866,-0.0439349,-4.5107045,0.7646866,0.1271225,4.6832939
0.3500000,0.3500000,0.3500000,0.6365329,-0.0440530,-4.4955320,0.6365329,0.0406344,4.1263505
0.3525000,0.3525000,0.3525000,0.5180963,-0.0442135,-4.4784996,0.5180963,-0.0390737,3.6244451
0.3550000,0.3550000,0.3550000,0.4084459,-0.0443959,-4.4597214,0.4084459,-0.1123298,3.1721683
0.3575000,0.3575000,0.3575000,0.3068477,-0.0445792,-4.4392772,0.3068477,-0.1794514,2.7646237
0.3600000,0.3600000,0.3600000,0.2127216,-0.0447427,-4.4172301,0.2127216,-0.2407694,2.3973646
0.3625000,0.3625000,0.3625000,0.1255996,-0.0448674,-4.3936381,0.1255996,-0.2966436,2.0663389
0.3650000,0.3650000,0.3650000,0.0450872,-0.0449364,-4.3685584,0.0450872,-0.3474683,1.7678428
0.3675000,0.3675000,0.3675000,-0.0291703,-0.0449354,-4.3420442,-0.0291703,-0.3936680,1.4984810
0.3700000,0.3700000,0.3700000,-0.0975143,-0.0448536,-4.3141378,-0.0975143,-0.4356847,1.2551371
0.3725000,0.3725000,0.3725000,-0.1602920,-0.0446847,-4.2848655,-0.1602920,-0.4739602,1.0349526
0.3750000,0.3750000,0.3750000,-0.2178667,-0.0444270,-4.2542355,-0.2178667,-0.5089176,0.8353148
0.3775000,0.3775000,0.3775000,-0.2706202,-0.0440834,-4.2222398,-0.2706202,-0.5409458,0.6538540
0.3800000,0.3800000,0.3800000,-0.3189474,-0.0436609,-4.1888609,-0.3189474,-0.5703880,0.4884437
0.3825000,0.3825000,0.3825000,-0.3632467,-0.0431693,-4.1540792,-0.3632467,-0.5975359,0.3372038
0.3850000,0.3850000,0.3850000,-0.4039076,-0.0426196,-4.1178813,-0.4039076,-0.6226280,0.1985000
0.3875000,0.3875000,0.3875000,-0.4412994,-0.0420230,-4.0802664,-0.4412994,-0.6458522,0.0709381
0.3900000,0.3900000,0.3900000,-0.4757612,-0.0413899,-4.0412515,-0.4757612,-0.6673521,-0.0466500
0.3925000,0.3925000,0.3925000,-0.5075956,-0.0407285,-4.0008730,-0.5075956,-0.6872353,-0.1552272
0.3950000,0.3950000,0.3950000,-0.5370650,-0.0400447,-3.9591877,-0.5370650,-0.7055847,-0.2555792
0.3975000,0.3975000,0.3975000,-0.5643917,-0.0393413,-3.9162709,-0.5643917,-0.7224678,-0.3483467
0.4000000,0.4000000,0.4000000,-0.5897613,-0.0386178,-3.8722141,-0.5897613,-0.7379454,-0.4340585
0.4025000,0.4025000,0.4025000,-0.6133284,-0.0378701,-3.8271214,-0.6133284,-0.7520767,-0.5131635
0.4050000,0.4050000,0.4050000,-0.6352248,-0.0370913,-3.7811064,-0.6352248,-0.7649201,-0.5860591
0.4075000,0.4075000,0.4075000,-0.6555661,-0.0362718,-3.7342885,-0.6555661,-0.7765327,-0.6531132
0.4100000,0.4100000,0.4100000,-0.6744583,-0.0354009,-3.6867899,-0.6744583,-0.7869664,-0.7146809
0.4125000,0.4125000,0.4125000,-0.6919998,-0.0344680,-3.6387325,-0.6919998,-0.7962659,-0.7711134
0.4150000,0.4150000,0.4150000,-0.7082816,-0.0334639,-3.5902363,-0.7082816,-0.8044675,-0.8227624
0.4175000,0.4175000,0.4175000,-0.7233848,-0.0323827,-3.5414167,-0.7233848,-0.8116007,-0.8699788
0.4200000,0.4200000,0.4200000,-0.7373771,-0.0312221,-3.4923840,-0.7373771,-0.8176937,-0.9131089
0.4225000,0.4225000,0.4225000,-0.7503104,-0.0299840,-3.4432416,-0.7503104,-0.8227800,-0.9524888
0.4250000,0.4250000,0.4250000,-0.7622203,-0.0286746,-3.3940860,-0.7622203,-0.8269049,-0.9884381
0.4275000,0.4275000,0.4275000,-0.7731292,-0.0273031,-3.3450061,-0.7731292,-0.8301277,-1.0212551
0.4300000,0.4300000,0.4300000,-0.7830518,-0.0258812,-3.2960832,-0.7830518,-0.8325184,-1.0512125
0.4325000,0.4325000,0.4325000,-0.7920039,-0.0244221,-3.2473910,-0.7920039,-0.8341474,-1.0785564
0.4350000,0.4350000,0.4350000,-0.8000087,-0.0229389,-3.1989958,-0.8000087,-0.8350739,-1.1035066
0.4375000,0.4375000,0.4375000,-0.8071009,-0.0214442,-3.1509569,-0.8071009,-0.8353347,-1.1262598
0.4400000,0.4400000,0.4400000,-0.8133238,-0.0199499,-3.1033266,-0.8133238,-0.8349374,-1.1469931
0.4425000,0.4425000,0.4425000,-0.8187224,-0.0184672,-3.0561513,-0.8187224,-0.8338611,-1.1658670
0.4450000,0.4450000,0.4450000,-0.8233323,-0.0170070,-3.0094711,-0.8233323,-0.8320618,-1.1830278
0.4475000,0.4475000,0.4475000,-0.8271710,-0.0155795,-2.9633210,-0.8271710,-0.8294820,-1.1986083
0.4500000,0.4500000,0.4500000,-0.8302316,-0.0141951,-2.9177307,-0.8302316,-0.8260610,-1.2127262
0.4525000,0.4525000,0.4525000,-0.8324831,-0.0128637,-2.8727256,-0.8324831,-0.8217456,-1.2254829
0.4550000,0.4550000,0.4550000,-0.8338745,-0.0115943,-2.8283267,-0.8338745,-0.8164966,-1.2369613
0.4575000,0.4575000,0.4575000,-0.8343436,-0.0103950,-2.7845514,-0.8343436,-0.8102941,-1.2472264
0.4600000,0.4600000,0.4600000,-0.8338259,-0.0092720,-2.7414136,-0.8338259,-0.8031392,-1.2563272
0.4625000,0.4625000,0.4625000,-0.8322644,-0.0082301,-2.6989241,-0.8322644,-0.7950532,-1.2643016
0.4650000,0.4650000,0.4650000,-0.8296162,-0.0072719,-2.6570912,-0.8296162,-0.7860757,-1.2711824
0.4675000,0.4675000,0.4675000,-0.8258573,-0.0063983,-2.6159203,-0.8258573,-0.7762618,-1.2770028
0.4700000,0.4700000,0.4700000,-0.8209847,-0.0056085,-2.5754152,-0.8209847,-0.7656779,-1.2817990
0.4725000,0.4725000,0.4725000,-0.8150167,-0.0049003,-2.5355772,-0.8150167,-0.7543986,-1.2856099
0.4750000,0.4750000,0.4750000,-0.8079905,-0.0042702,-2.4964064,-0.8079905,-0.7425034,-1.2884729
0.4775000,0.4775000,0.4775000,-0.7999602,-0.0037140,-2.4579009,-0.7999602,-0.7300736,-1.2904174
0.4800000,0.4800000,0.4800000,-0.7909926,-0.0032268,-2.4200579,-0.7909926,-0.7171901,-1.2914594
0.4825000,0.4825000,0.4825000,-0.7811643,-0.0028033,-2.3828732,-0.7811643,-0.7039319,-1.2915970
0.4850000,0.4850000,0.4850000,-0.7705582,-0.0024381,-2.3463416,-0.7705582,-0.6903740,-1.2908097
0.4875000,0.4875000,0.4875000,-0.7592605,-0.0021260,-2.3104573,-0.7592605,-0.6765869,-1.2890605
0.4900000,0.4900000,0.4900000,-0.7473582,-0.0018616,-2.2752133,-0.7473582,-0.6626362,-1.2863015
0.4925000,0.4925000,0.4925000,-0.7349369,-0.0016399,-2.2406023,-0.7349369,-0.6485817,-1.2824799
0.4950000,0.4950000,0.4950000,-0.7220796,-0.0014561,-2.2066164,-0.7220796,-0.6344777,-1.2775453
0.4975000,0.4975000,0.4975000,-0.7088648,-0.0013060,-2.1732471,-0.7088648,-0.6203729,-1.2714556
0.5000000,0.5000000,0.5000000,-0.6953666,-0.0011853,-2.1404857,-0.6953666,-0.6063106,-1.2641823
0.5025000,0.5025000,0.5025000,-0.6816533,-0.0010904,-2.1083230,-0.6816533,-0.5923293,-1.2557134
0.5050000,0.5050000,0.5050000,-0.6677880,-0.0010179,-2.0767497,-0.6677880,-0.5784621,-1.2460547
0.5075000,0.5075000,0.5075000,-0.6538276,-0.0009648,-2.0457562,-0.6538276,-0.5647383,-1.2352300
0.5100000,0.5100000,0.5100000,-0.6398239,-0.0009284,-2.0153328,-0.6398239,-0.5511827,-1.2232795
0.5125000,0.5125000,0.5125000,-0.6258228,-0.0009063,-1.9854696,-0.6258228,-0.5378164,-1.2102582
0.5150000,0.5150000,0.5150000,-0.6118655,-0.0008962,-1.9561569,-0.6118655,-0.5246573,-1.1962329
0.5175000,0.5175000,0.5175000,-0.5979878,-0.0008963,-1.9273847,-0.5979878,-0.5117203,-1.1812797
0.5200000,0.5200000,0.5200000,-0.5842215,-0.0009049,-1.8991431,-0.5842215,-0.4990173,-1.1654813
0.5225000,0.5225000,0.5225000,-0.5705939,-0.0009205,-1.8714220,-0.5705939,-0.4865581,-1.1489242
0.5250000,0.5250000,0.5250000,-0.5571287,-0.0009419,-1.8442118,-0.5571287,-0.4743501,-1.1316969
0.5275000,0.5275000,0.5275000,-0.5438460,-0.0009679,-1.8175024,-0.5438460,-0.4623991,-1.1138877
0.5300000,0.5300000,0.5300000,-0.5307627,-0.0009976,-1.7912843,-0.5307627,-0.4507089,-1.0955830
0.5325000,0.5325000,0.5325000,-0.5178931,-0.0010301,-1.7655478,-0.5178931,-0.4392822,-1.0768665
0.5350000,0.5350000,0.5350000,-0.5052489,-0.0010647,-1.7402833,-0.5052489,-0.4281201,-1.0578177
0.5375000,0.5375000,0.5375000,-0.4928395,-0.0011007,-1.7154813,-0.4928395,-0.4172229,-1.0385119
0.5400000,0.5400000,0.5400000,-0.4806723,-0.0011377,-1.6911327,-0.4806723,-0.4065897,-1.0190190
0.5425000,0.5425000,0.5425000,-0.4687529,-0.0011751,-1.6672282,-0.4687529,-0.3962189,-0.9994039
0.5450000,0.5450000,0.5450000,-0.4570854,-0.0012127,-1.6437587,-0.4570854,-0.3861082,-0.9797261
0.5475000,0.5475000,0.5475000,-0.4456725,-0.0012500,-1.6207154,-0.4456725,-0.3762548,-0.9600397
0.5500000,0.5500000,0.5500000,-0.4345157,-0.0012868,-1.5980896,-0.4345157,-0.3666551,-0.9403937
0.5525000,0.5525000,0.5525000,-0.4236156,-0.0013228,-1.5758726,-0.4236156,-0.3573055,-0.9208320
0.5550000,0.5550000,0.5550000,-0.4129715,-0.0013580,-1.5540560,-0.4129715,-0.3482017,-0.9013938
0.5575000,0.5575000,0.5575000,-0.4025823,-0.0013921,-1.5326315,-0.4025823,-0.3393393,-0.8821139
0.5600000,0.5600000,0.5600000,-0.3924461,-0.0014250,-1.5115910,-0.3924461,-0.3307136,-0.8630229
0.5625000,0.5625000,0.5625000,-0.3825604,-0.0014566,-1.4909264,-0.3825604,-0.3223198,-0.8441474
0.5650000,0.5650000,0.5650000,-0.3729221,-0.0014869,-1.4706301,-0.3729221,-0.3141529,-0.8255106
0.5675000,0.5675000,0.5675000,-0.3635279,-0.0015158,-1.4506942,-0.3635279,-0.3062077,-0.8071321
0.5700000,0.5700000,0.5700000,-0.3543740,-0.0015432,-1.4311114,-0.3543740,-0.2984793,-0.7890289
0.5725000,0.5725000,0.5725000,-0.3454563,-0.0015692,-1.4118742,-0.3454563,-0.2909623,-0.7712151
0.5750000,0.5750000,0.5750000,-0.3367706,-0.0015938,-1.3929755,-0.3367706,-0.2836515,-0.7537023
0.5775000,0.5775000,0.5775000,-0.3283124,-0.0016169,-1.3744082,-0.3283124,-0.2765419,-0.7365000
0.5800000,0.5800000,0.5800000,-0.3200771,-0.0016385,-1.3561654,-0.3200771,-0.2696282,-0.7196155
0.5825000,0.5825000,0.5825000,-0.3120599,-0.0016587,-1.3382404,-0.3120599,-0.2629054,-0.7030546
0.5850000,0.5850000,0.5850000,-0.3042561,-0.0016775,-1.3206265,-0.3042561,-0.2563682,-0.6868213
0.5875000,0.5875000,0.5875000,-0.2966608,-0.0016949,-1.3033174,-0.2966608,-0.2500118,-0.6709184
0.5900000,0.5900000,0.5900000,-0.2892690,-0.0017110,-1.2863066,-0.2892690,-0.2438312,-0.6553471
0.5925000,0.5925000,0.5925000,-0.2820760,-0.0017258,-1.2695881,-0.2820760,-0.2378216,-0.6401079
0.5950000,0.5950000,0.5950000,-0.2750768,-0.0017393,-1.2531557,-0.2750768,-0.2319782,-0.6252000
0.5975000,0.5975000,0.5975000,-0.2682665,-0.0017515,-1.2370037,-0.2682665,-0.2262964,-0.6106220
0.6000000,0.6000000,0.6000000,-0.2616404,-0.0017626,-1.2211261,-0.2616404,-0.2207715,-0.5963715
0.6025000,0.6025000,0.6025000,-0.2551937,-0.0017725,-1.2055174,-0.2551937,-0.2153992,-0.5824458
0.6050000,0.6050000,0.6050000,-0.2489216,-0.0017812,-1.1901721,-0.2489216,-0.2101750,-0.5688413
0.6075000,0.6075000,0.6075000,-0.2428195,-0.0017890,-1.1750848,-0.2428195,-0.2050946,-0.5555541
0.6100000,0.6100000,0.6100000,-0.2368829,-0.0017956,-1.1602502,-0.2368829,-0.2001540,-0.5425798
0.6125000,0.6125000,0.6125000,-0.2311073,-0.0018014,-1.1456631,-0.2311073,-0.1953491,-0.5299139
0.6150000,0.6150000,0.6150000,-0.2254882,-0.0018061,-1.1313186,-0.2254882,-0.1906758,-0.5175513
0.6175000,0.6175000,0.6175000,-0.2200214,-0.0018100,-1.1172117,-0.2200214,-0.1861305,-0.5054868
0.6200000,0.6200000,0.6200000,-0.2147026,-0.0018130,-1.1033376,-0.2147026,-0.1817093,-0.4937151
0.6225000,0.6225000,0.6225000,-0.2095277,-0.0018151,-1.0896916,-0.2095277,-0.1774085,-0.4822306
0.6250000,0.6250000,0.6250000,-0.2044927,-0.0018165,-1.0762692,-0.2044927,-0.1732248,-0.4710276
0.6275000,0.6275000,0.6275000,-0.1995936,-0.0018171,-1.0630658,-0.1995936,-0.1691545,-0.4601004
0.6300000,0.6300000,0.6300000,-0.1948265,-0.0018171,-1.0500772,-0.1948265,-0.1651944,-0.4494432
0.6325000,0.6325000,0.6325000,-0.1901878,-0.0018163,-1.0372989,-0.1901878,-0.1613413,-0.4390503
0.6350000,0.6350000,0.6350000,-0.1856738,-0.0018149,-1.0247269,-0.1856738,-0.1575919,-0.4289156
0.6375000,0.6375000,0.6375000,-0.1812809,-0.0018129,-1.0123570,-0.1812809,-0.1539433,-0.4190335
0.6400000,0.6400000,0.6400000,-0.1770057,-0.0018103,-1.0001852,-0.1770057,-0.1503925,-0.4093980
0.6425000,0.6425000,0.6425000,-0.1728447,-0.0018071,-0.9882077,-0.1728447,-0.1469365,-0.4000035
0.6450000,0.6450000,0.6450000,-0.1687948,-0.0018035,-0.9764206,-0.1687948,-0.1435726,-0.3908441
0.6475000,0.6475000,0.6475000,-0.1648526,-0.0017993,-0.9648202,-0.1648526,-0.1402981,-0.3819143
0.6500000,0.6500000,0.6500000,-0.1610152,-0.0017947,-0.9534029,-0.1610152,-0.1371104,-0.3732085
0.6525000,0.6525000,0.6525000,-0.1572795,-0.0017896,-0.9421651,-0.1572795,-0.1340069,-0.3647211
0.6550000,0.6550000,0.6550000,-0.1536426,-0.0017842,-0.9311032,-0.1536426,-0.1309852,-0.3564466
0.6575000,0.6575000,0.6575000,-0.1501017,-0.0017783,-0.9202140,-0.1501017,-0.1280428,-0.3483799
0.6600000,0.6600000,0.6600000,-0.1466539,-0.0017721,-0.9094941,-0.1466539,-0.1251774,-0.3405155
0.6625000,0.6625000,0.6625000,-0.1432966,-0.0017655,-0.8989402,-0.1432966,-0.1223869,-0.3328484
0.6650000,0.6650000,0.6650000,-0.1400273,-0.0017586,-0.8885492,-0.1400273,-0.1196690,-0.3253735
0.6675000,0.6675000,0.6675000,-0.1368433,-0.0017514,-0.8783179,-0.1368433,-0.1170215,-0.3180858
0.6700000,0.6700000,0.6700000,-0.1337422,-0.0017439,-0.8682434,-0.1337422,-0.1144426,-0.3109806
0.6725000,0.6725000,0.6725000,-0.1307217,-0.0017361,-0.8583225,-0.1307217,-0.1119301,-0.3040530
0.6750000,0.6750000,0.6750000,-0.1277795,-0.0017281,-0.8485526,-0.1277795,-0.1094822,-0.2972984
0.6775000,0.6775000,0.6775000,-0.1249132,-0.0017199,-0.8389306,-0.1249132,-0.1070969,-0.2907123
0.6800000,0.6800000,0.6800000,-0.1221208,-0.0017115,-0.8294538,-0.1221208,-0.1047726,-0.2842903
0.6825000,0.6825000,0.6825000,-0.1194001,-0.0017028,-0.8201195,-0.1194001,-0.1025074,-0.2780280
0.6850000,0.6850000,0.6850000,-0.1167492,-0.0016940,-0.8109251,-0.1167492,-0.1002996,-0.2719213
0.6875000,0.6875000,0.6875000,-0.1141659,-0.0016850,-0.8018679,-0.1141659,-0.0981477,-0.2659660
0.6900000,0.6900000,0.6900000,-0.1116484,-0.0016758,-0.7929455,-0.1116484,-0.0960500,-0.2601580
0.6925000,0.6925000,0.6925000,-0.1091949,-0.0016665,-0.7841552,-0.1091949,-0.0940049,-0.2544936
0.6950000,0.6950000,0.6950000,-0.1068034,-0.0016571,-0.7754947,-0.1068034,-0.0920111,-0.2489689
0.6975000,0.6975000,0.6975000,-0.1044723,-0.0016475,-0.7669617,-0.1044723,-0.0900670,-0.2435801
0.7000000,0.7000000,0.7000000,-0.1021999,-0.0016378,-0.7585537,-0.1021999,-0.0881712,-0.2383237
0.7025000,0.7025000,0.7025000,-0.0999845,-0.0016280,-0.7502685,-0.0999845,-0.0863224,-0.2331961
0.7050000,0.7050000,0.7050000,-0.0978246,-0.0016182,-0.7421039,-0.0978246,-0.0845192,-0.2281940
0.7075000,0.7075000,0.7075000,-0.0957185,-0.0016082,-0.7340577,-0.0957185,-0.0827604,-0.2233139
0.7100000,0.7100000,0.7100000,-0.0936647,-0.0015982,-0.7261277,-0.0936647,-0.0810448,-0.2185526
0.7125000,0.7125000,0.7125000,-0.0916619,-0.0015881,-0.7183119,-0.0916619,-0.0793711,-0.2139070
0.7150000,0.7150000,0.7150000,-0.0897085,-0.0015779,-0.7106083,-0.0897085,-0.0777381,-0.2093741
0.7175000,0.7175000,0.7175000,-0.0878033,-0.0015677,-0.7030147,-0.0878033,-0.0761448,-0.2049507
0.7200000,0.7200000,0.7200000,-0.0859449,-0.0015575,-0.6955293,-0.0859449,-0.0745901,-0.2006340
0.7225000,0.7225000,0.7225000,-0.0841319,-0.0015472,-0.6881502,-0.0841319,-0.0730729,-0.1964212
0.7250000,0.7250000,0.7250000,-0.0823632,-0.0015369,-0.6808754,-0.0823632,-0.0715921,-0.1923095
0.7275000,0.7275000,0.7275000,-0.0806376,-0.0015266,-0.6737032,-0.0806376,-0.0701468,-0.1882962
0.7300000,0.7300000,0.7300000,-0.0789538,-0.0015163,-0.6666317,-0.0789538,-0.0687360,-0.1843788
0.7325000,0.7325000,0.7325000,-0.0773107,-0.0015059,-0.6596591,-0.0773107,-0.0673587,-0.1805547
0.7350000,0.7350000,0.7350000,-0.0757072,-0.0014955,-0.6527838,-0.0757072,-0.0660141,-0.1768215
0.7375000,0.7375000,0.7375000,-0.0741422,-0.0014852,-0.6460041,-0.0741422,-0.0647013,-0.1731767
0.7400000,0.7400000,0.7400000,-0.0726147,-0.0014748,-0.6393183,-0.0726147,-0.0634193,-0.1696181
0.7425000,0.7425000,0.7425000,-0.0711237,-0.0014645,-0.6327247,-0.0711237,-0.0621675,-0.1661433
0.7450000,0.7450000,0.7450000,-0.0696682,-0.0014541,-0.6262218,-0.0696682,-0.0609449,-0.1627503
0.7475000,0.7475000,0.7475000,-0.0682472,-0.0014438,-0.6198081,-0.0682472,-0.0597509,-0.1594368
0.7500000,0.7500000,0.7500000,-0.0668599,-0.0014335,-0.6134820,-0.0668599,-0.0585845,-0.1562007
0.7525000,0.7525000,0.7525000,-0.0655052,-0.0014232,-0.6072420,-0.0655052,-0.0574452,-0.1530401
0.7550000,0.7550000,0.7550000,-0.0641824,-0.0014130,-0.6010867,-0.0641824,-0.0563321,-0.1499530
0.7575000,0.7575000,0.7575000,-0.0628906,-0.0014028,-0.5950146,-0.0628906,-0.0552447,-0.1469375
0.7600000,0.7600000,0.7600000,-0.0616289,-0.0013926,-0.5890243,-0.0616289,-0.0541821,-0.1439917
0.7625000,0.7625000,0.7625000,-0.0603966,-0.0013824,-0.5831145,-0.0603966,-0.0531439,-0.1411139
0.7650000,0.7650000,0.7650000,-0.0591930,-0.0013723,-0.5772837,-0.0591930,-0.0521292,-0.1383022
0.7675000,0.7675000,0.7675000,-0.0580171,-0.0013622,-0.5715308,-0.0580171,-0.0511376,-0.1355550
0.7700000,0.7700000,0.7700000,-0.0568684,-0.0013522,-0.5658543,-0.0568684,-0.0501684,-0.1328706
0.7725000,0.7725000,0.7725000,-0.0557461,-0.0013422,-0.5602531,-0.0557461,-0.0492210,-0.1302475
0.7750000,0.7750000,0.7750000,-0.0546496,-0.0013322,-0.5547258,-0.0546496,-0.0482949,-0.1276839
0.7775000,0.7775000,0.7775000,-0.0535781,-0.0013223,-0.5492713,-0.0535781,-0.0473895,-0.1251786
0.7800000,0.7800000,0.7800000,-0.0525310,-0.0013125,-0.5438883,-0.0525310,-0.0465043,-0.1227298
0.7825000,0.7825000,0.7825000,-0.0515077,-0.0013027,-0.5385758,-0.0515077,-0.0456388,-0.1203363
0.7850000,0.7850000,0.7850000,-0.0505075,-0.0012929,-0.5333324,-0.0505075,-0.0447925,-0.1179966
0.7875000,0.7875000,0.7875000,-0.0495299,-0.0012832,-0.5281572,-0.0495299,-0.0439649,-0.1157093
0.7900000,0.7900000,0.7900000,-0.0485743,-0.0012736,-0.5230490,-0.0485743,-0.0431554,-0.1134732
0.7925000,0.7925000,0.7925000,-0.0476402,-0.0012640,-0.5180067,-0.0476402,-0.0423637,-0.1112869
0.7950000,0.7950000,0.7950000,-0.0467269,-0.0012545,-0.5130293,-0.0467269,-0.0415894,-0.1091492
0.7975000,0.7975000,0.7975000,-0.0458340,-0.0012450,-0.5081157,-0.0458340,-0.0408319,-0.1070588
0.8000000,0.8000000,0.8000000,-0.0449609,-0.0012356,-0.5032649,-0.0449609,-0.0400908,-0.1050147
0.8025000,0.8025000,0.8025000,-0.0441072,-0.0012263,-0.4984759,-0.0441072,-0.0393658,-0.1030156
0.8050000,0.8050000,0.8050000,-0.0432723,-0.0012170,-0.4937477,-0.0432723,-0.0386565,-0.1010605
0.8075000,0.8075000,0.8075000,-0.0424558,-0.0012078,-0.4890794,-0.0424558,-0.0379623,-0.0991482
0.8100000,0.8100000,0.8100000,-0.0416572,-0.0011986,-0.4844699,-0.0416572,-0.0372831,-0.0972776
0.8125000,0.8125000,0.8125000,-0.0408761,-0.0011895,-0.4799184,-0.0408761,-0.0366184,-0.0954478
0.8150000,0.8150000,0.8150000,-0.0401120,-0.0011805,-0.4754240,-0.0401120,-0.0359678,-0.0936578
0.8175000,0.8175000,0.8175000,-0.0393646,-0.0011715,-0.4709858,-0.0393646,-0.0353310,-0.0919065
0.8200000,0.8200000,0.8200000,-0.0386333,-0.0011626,-0.4666028,-0.0386333,-0.0347077,-0.0901931
0.8225000,0.8225000,0.8225000,-0.0379179,-0.0011538,-0.4622743,-0.0379179,-0.0340976,-0.0885165
0.8250000,0.8250000,0.8250000,-0.0372179,-0.0011450,-0.4579994,-0.0372179,-0.0335002,-0.0868760
0.8275000,0.8275000,0.8275000,-0.0365329,-0.0011363,-0.4537772,-0.0365329,-0.0329154,-0.0852706
0.8300000,0.8300000,0.8300000,-0.0358626,-0.0011276,-0.4496070,-0.0358626,-0.0323428,-0.0836995
0.8325000,0.8325000,0.8325000,-0.0352066,-0.0011190,-0.4454879,-0.0352066,-0.0317821,-0.0821618
0.8350000,0.8350000,0.8350000,-0.0345646,-0.0011105,-0.4414192,-0.0345646,-0.0312330,-0.0806568
0.8375000,0.8375000,0.8375000,-0.0339362,-0.0011021,-0.4374001,-0.0339362,-0.0306953,-0.0791836
0.8400000,0.8400000,0.8400000,-0.0333211,-0.0010937,-0.4334298,-0.0333211,-0.0301687,-0.0777416
0.8425000,0.8425000,0.8425000,-0.0327190,-0.0010854,-0.4295076,-0.0327190,-0.0296529,-0.0763299
0.8450000,0.8450000,0.8450000,-0.0321295,-0.0010771,-0.4256328,-0.0321295,-0.0291476,-0.0749478
0.8475000,0.8475000,0.8475000,-0.0315525,-0.0010689,-0.4218047,-0.0315525,-0.0286527,-0.0735946
0.8500000,0.8500000,0.8500000,-0.0309874,-0.0010608,-0.4180225,-0.0309874,-0.0281678,-0.0722698
0.8525000,0.8525000,0.8525000,-0.0304342,-0.0010528,-0.4142855,-0.0304342,-0.0276928,-0.0709724
0.8550000,0.8550000,0.8550000,-0.0298925,-0.0010448,-0.4105931,-0.0298925,-0.0272273,-0.0697020
0.8575000,0.8575000,0.8575000,-0.0293620,-0.0010368,-0.4069447,-0.0293620,-0.0267713,-0.0684579
0.8600000,0.8600000,0.8600000,-0.0288424,-0.0010290,-0.4033395,-0.0288424,-0.0263244,-0.0672395
0.8625000,0.8625000,0.8625000,-0.0283336,-0.0010212,-0.3997770,-0.0283336,-0.0258865,-0.0660462
0.8650000,0.8650000,0.8650000,-0.0278352,-0.0010135,-0.3962564,-0.0278352,-0.0254573,-0.0648773
0.8675000,0.8675000,0.8675000,-0.0273471,-0.0010058,-0.3927772,-0.0273471,-0.0250366,-0.0637324
0.8700000,0.8700000,0.8700000,-0.0268689,-0.0009982,-0.3893388,-0.0268689,-0.0246243,-0.0626108
0.8725000,0.8725000,0.8725000,-0.0264004,-0.0009906,-0.3859406,-0.0264004,-0.0242202,-0.0615121
0.8750000,0.8750000,0.8750000,-0.0259415,-0.0009832,-0.3825819,-0.0259415,-0.0238240,-0.0604356
0.8775000,0.8775000,0.8775000,-0.0254918,-0.0009758,-0.3792623,-0.0254918,-0.0234356,-0.0593810
0.8800000,0.8800000,0.8800000,-0.0250513,-0.0009684,-0.3759811,-0.0250513,-0.0230548,-0.0583476
0.8825000,0.8825000,0.8825000,-0.0246196,-0.0009611,-0.3727378,-0.0246196,-0.0226814,-0.0573350
0.8850000,0.8850000,0.8850000,-0.0241966,-0.0009539,-0.3695318,-0.0241966,-0.0223154,-0.0563428
0.8875000,0.8875000,0.8875000,-0.0237820,-0.0009467,-0.3663626,-0.0237820,-0.0219564,-0.0553704
0.8900000,0.8900000,0.8900000,-0.0233757,-0.0009396,-0.3632297,-0.0233757,-0.0216043,-0.0544174
0.8925000,0.8925000,0.8925000,-0.0229775,-0.0009326,-0.3601326,-0.0229775,-0.0212591,-0.0534834
0.8950000,0.8950000,0.8950000,-0.0225872,-0.0009256,-0.3570707,-0.0225872,-0.0209205,-0.0525679
0.8975000,0.8975000,0.8975000,-0.0222047,-0.0009187,-0.3540435,-0.0222047,-0.0205884,-0.0516706
0.9000000,0.9000000,0.9000000,-0.0218296,-0.0009118,-0.3510506,-0.0218296,-0.0202626,-0.0507909
0.9025000,0.9025000,0.9025000,-0.0214620,-0.0009050,-0.3480915,-0.0214620,-0.0199431,-0.0499286
0.9050000,0.9050000,0.9050000,-0.0211016,-0.0008983,-0.3451656,-0.0211016,-0.0196296,-0.0490832
0.9075000,0.9075000,0.9075000,-0.0207482,-0.0008916,-0.3422726,-0.0207482,-0.0193221,-0.0482544
0.9100000,0.9100000,0.9100000,-0.0204017,-0.0008850,-0.3394119,-0.0204017,-0.0190203,-0.0474418
0.9125000,0.9125000,0.9125000,-0.0200620,-0.0008784,-0.3365831,-0.0200620,-0.0187243,-0.0466450
0.9150000,0.9150000,0.9150000,-0.0197289,-0.0008719,-0.3337858,-0.0197289,-0.0184338,-0.0458636
0.9175000,0.9175000,0.9175000,-0.0194022,-0.0008655,-0.3310196,-0.0194022,-0.0181487,-0.0450974
0.9200000,0.9200000,0.9200000,-0.0190818,-0.0008591,-0.3282839,-0.0190818,-0.0178690,-0.0443460
0.9225000,0.9225000,0.9225000,-0.0187676,-0.0008527,-0.3255784,-0.0187676,-0.0175944,-0.0436091
0.9250000,0.9250000,0.9250000,-0.0184594,-0.0008464,-0.3229026,-0.0184594,-0.0173250,-0.0428863
0.9275000,0.9275000,0.9275000,-0.0181571,-0.0008402,-0.3202562,-0.0181571,-0.0170605,-0.0421774
0.9300000,0.9300000,0.9300000,-0.0178606,-0.0008340,-0.3176388,-0.0178606,-0.0168009,-0.0414821
0.9325000,0.9325000,0.9325000,-0.0175697,-0.0008279,-0.3150499,-0.0175697,-0.0165461,-0.0408000
0.9350000,0.9350000,0.9350000,-0.0172843,-0.0008219,-0.3124891,-0.0172843,-0.0162959,-0.0401308
0.9375000,0.9375000,0.9375000,-0.0170044,-0.0008158,-0.3099561,-0.0170044,-0.0160503,-0.0394744
0.9400000,0.9400000,0.9400000,-0.0167297,-0.0008099,-0.3074506,-0.0167297,-0.0158092,-0.0388303
0.9425000,0.9425000,0.9425000,-0.0164602,-0.0008040,-0.3049720,-0.0164602,-0.0155725,-0.0381984
0.9450000,0.9450000,0.9450000,-0.0161958,-0.0007981,-0.3025201,-0.0161958,-0.0153400,-0.0375784
0.9475000,0.9475000,0.9475000,-0.0159363,-0.0007923,-0.3000945,-0.0159363,-0.0151118,-0.0369701
0.9500000,0.9500000,0.9500000,-0.0156817,-0.0007866,-0.2976949,-0.0156817,-0.0148876,-0.0363731
0.9525000,0.9525000,0.9525000,-0.0154318,-0.0007809,-0.2953209,-0.0154318,-0.0146675,-0.0357873
0.9550000,0.9550000,0.9550000,-0.0151865,-0.0007752,-0.2929722,-0.0151865,-0.0144513,-0.0352123
0.9575000,0.9575000,0.9575000,-0.0149458,-0.0007696,-0.2906483,-0.0149458,-0.0142390,-0.0346481
0.9600000,0.9600000,0.9600000,-0.0147096,-0.0007641,-0.2883491,-0.0147096,-0.0140305,-0.0340943
0.9625000,0.9625000,0.9625000,-0.0144776,-0.0007586,-0.2860741,-0.0144776,-0.0138256,-0.0335507
0.9650000,0.9650000,0.9650000,-0.0142500,-0.0007531,-0.2838231,-0.0142500,-0.0136244,-0.0330171
0.9675000,0.9675000,0.9675000,-0.0140265,-0.0007477,-0.2815958,-0.0140265,-0.0134267,-0.0324934
0.9700000,0.9700000,0.9700000,-0.0138071,-0.0007424,-0.2793917,-0.0138071,-0.0132326,-0.0319792
0.9725000,0.9725000,0.9725000,-0.0135918,-0.0007371,-0.2772107,-0.0135918,-0.0130418,-0.0314745
0.9750000,0.9750000,0.9750000,-0.0133803,-0.0007318,-0.2750524,-0.0133803,-0.0128543,-0.0309789
0.9775000,0.9775000,0.9775000,-0.0131727,-0.0007266,-0.2729165,-0.0131727,-0.0126701,-0.0304924
0.9800000,0.9800000,0.9800000,-0.0129688,-0.0007214,-0.2708027,-0.0129688,-0.0124891,-0.0300147
0.9825000,0.9825000,0.9825000,-0.0127686,-0.0007163,-0.2687108,-0.0127686,-0.0123113,-0.0295456
0.9850000,0.9850000,0.9850000,-0.0125720,-0.0007112,-0.2666405,-0.0125720,-0.0121365,-0.0290851
0.9875000,0.9875000,0.9875000,-0.0123789,-0.0007062,-0.2645914,-0.0123789,-0.0119648,-0.0286328
0.9900000,0.9900000,0.9900000,-0.0121893,-0.0007012,-0.2625634,-0.0121893,-0.0117960,-0.0281886
0.9925000,0.9925000,0.9925000,-0.0120031,-0.0006963,-0.2605561,-0.0120031,-0.0116300,-0.0277524
0.9950000,0.9950000,0.9950000,-0.0118202,-0.0006914,-0.2585692,-0.0118202,-0.0114670,-0.0273240
0.9975000,0.9975000,0.9975000,-0.0116405,-0.0006865,-0.2566026,-0.0116405,-0.0113067,-0.0269032
1.0000000,1.0000000,1.0000000,-0.0114641,-0.0006817,-0.2546560,-0.0114641,-0.0111491,-0.0264899
1.0025000,1.0025000,1.0025000,-0.0112907,-0.0006769,-0.2527290,-0.0112907,-0.0109942,-0.0260839
1.0050000,1.0050000,1.0050000,-0.0111204,-0.0006722,-0.2508215,-0.0111204,-0.0108419,-0.0256851
1.0075000,1.0075000,1.0075000,-0.0109531,-0.0006675,-0.2489332,-0.0109531,-0.0106922,-0.0252934
1.0100000,1.0100000,1.0100000,-0.0107887,-0.0006629,-0.2470639,-0.0107887,-0.0105450,-0.0249085
1.0125000,1.0125000,1.0125000,-0.0106272,-0.0006582,-0.2452133,-0.0106272,-0.0104002,-0.0245304
1.0150000,1.0150000,1.0150000,-0.0104686,-0.0006537,-0.2433812,-0.0104686,-0.0102579,-0.0241590
1.0175000,1.0175000,1.0175000,-0.0103127,-0.0006491,-0.2415674,-0.0103127,-0.0101180,-0.0237940
1.0200000,1.0200000,1.0200000,-0.0101595,-0.0006447,-0.2397716,-0.0101595,-0.0099804,-0.0234354
1.0225000,1.0225000,1.0225000,-0.0100089,-0.0006402,-0.2379936,-0.0100089,-0.0098450,-0.0230830
1.0250000,1.0250000,1.0250000,-0.0098610,-0.0006358,-0.2362332,-0.0098610,-0.0097119,-0.0227368
1.0275000,1.0275000,1.0275000,-0.0097156,-0.0006314,-0.2344902,-0.0097156,-0.0095810,-0.0223965
1.0300000,1.0300000,1.0300000,-0.0095727,-0.0006271,-0.2327644,-0.0095727,-0.0094523,-0.0220621
1.0325000,1.0325000,1.0325000,-0.0094322,-0.0006228,-0.2310555,-0.0094322,-0.0093256,-0.0217335
1.0350000,1.0350000,1.0350000,-0.0092942,-0.0006185,-0.2293633,-0.0092942,-0.0092010,-0.0214105
1.0375000,1.0375000,1.0375000,-0.0091585,-0.0006143,-0.2276876,-0.0091585,-0.0090785,-0.0210931
1.0400000,1.0400000,1.0400000,-0.0090251,-0.0006101,-0.2260283,-0.0090251,-0.0089579,-0.0207811
1.0425000,1.0425000,1.0425000,-0.0088940,-0.0006060,-0.2243852,-0.0088940,-0.0088393,-0.0204744
1.0450000,1.0450000,1.0450000,-0.0087651,-0.0006019,-0.2227579,-0.0087651,-0.0087226,-0.0201729
1.0475000,1.0475000,1.0475000,-0.0086384,-0.0005978,-0.2211464,-0.0086384,-0.0086078,-0.0198766
1.0500000,1.0500000,1.0500000,-0.0085138,-0.0005938,-0.2195505,-0.0085138,-0.0084949,-0.0195852
1.0525000,1.0525000,1.0525000,-0.0083913,-0.0005898,-0.2179699,-0.0083913,-0.0083837,-0.0192988
1.0550000,1.0550000,1.0550000,-0.0082709,-0.0005858,-0.2164046,-0.0082709,-0.0082744,-0.0190172
1.0575000,1.0575000,1.0575000,-0.0081525,-0.0005818,-0.2148542,-0.0081525,-0.0081668,-0.0187404
1.0600000,1.0600000,1.0600000,-0.0080360,-0.0005779,-0.2133186,-0.0080360,-0.0080608,-0.0184682
1.0625000,1.0625000,1.0625000,-0.0079215,-0.0005741,-0.2117977,-0.0079215,-0.0079566,-0.0182005
1.0650000,1.0650000,1.0650000,-0.0078090,-0.0005702,-0.2102912,-0.0078090,-0.0078540,-0.0179374
1.0675000,1.0675000,1.0675000,-0.0076982,-0.0005664,-0.2087990,-0.0076982,-0.0077531,-0.0176786
1.0700000,1.0700000,1.0700000,-0.0075893,-0.0005626,-0.2073210,-0.0075893,-0.0076537,-0.0174241
1.0725000,1.0725000,1.0725000,-0.0074822,-0.0005589,-0.2058569,-0.0074822,-0.0075559,-0.0171738
1.0750000,1.0750000,1.0750000,-0.0073769,-0.0005552,-0.2044066,-0.0073769,-0.0074596,-0.0169277
1.0775000,1.0775000,1.0775000,-0.0072733,-0.0005515,-0.2029699,-0.0072733,-0.0073648,-0.0166857
1.0800000,1.0800000,1.0800000,-0.0071714,-0.0005479,-0.2015468,-0.0071714,-0.0072715,-0.0164476
1.0825000,1.0825000,1.0825000,-0.0070711,-0.0005443,-0.2001369,-0.0070711,-0.0071797,-0.0162134
1.0850000,1.0850000,1.0850000,-0.0069725,-0.0005407,-0.1987402,-0.0069725,-0.0070892,-0.0159831
1.0875000,1.0875000,1.0875000,-0.0068755,-0.0005371,-0.1973564,-0.0068755,-0.0070002,-0.0157565
1.0900000,1.0900000,1.0900000,-0.0067801,-0.0005336,-0.1959856,-0.0067801,-0.0069125,-0.0155337
1.0925000,1.0925000,1.0925000,-0.0066862,-0.0005301,-0.1946274,-0.0066862,-0.0068262,-0.0153145
1.0950000,1.0950000,1.0950000,-0.0065938,-0.0005266,-0.1932818,-0.0065938,-0.0067412,-0.0150988
1.0975000,1.0975000,1.0975000,-0.0065029,-0.0005232,-0.1919486,-0.0065029,-0.0066575,-0.0148866
1.1000000,1.1000000,1.1000000,-0.0064135,-0.0005198,-0.1906277,-0.0064135,-0.0065751,-0.0146779
1.1025000,1.1025000,1.1025000,-0.0063255,-0.0005164,-0.1893189,-0.0063255,-0.0064940,-0.0144725
1.1050000,1.1050000,1.1050000,-0.0062389,-0.0005131,-0.1880221,-0.0062389,-0.0064140,-0.0142704
1.1075000,1.1075000,1.1075000,-0.0061537,-0.0005097,-0.1867371,-0.0061537,-0.0063353,-0.0140716
1.1100000,1.1100000,1.1100000,-0.0060698,-0.0005065,-0.1854638,-0.0060698,-0.0062578,-0.0138760
1.1125000,1.1125000,1.1125000,-0.0059873,-0.0005032,-0.1842022,-0.0059873,-0.0061814,-0.0136835
1.1150000,1.1150000,1.1150000,-0.0059061,-0.0004999,-0.1829519,-0.0059061,-0.0061062,-0.0134941
1.1175000,1.1175000,1.1175000,-0.0058262,-0.0004967,-0.1817130,-0.0058262,-0.0060321,-0.0133077
1.1200000,1.1200000,1.1200000,-0.0057475,-0.0004935,-0.1804853,-0.0057475,-0.0059591,-0.0131242
1.1225000,1.1225000,1.1225000,-0.0056701,-0.0004904,-0.1792687,-0.0056701,-0.0058872,-0.0129437
1.1250000,1.1250000,1.1250000,-0.0055939,-0.0004873,-0.1780630,-0.0055939,-0.0058163,-0.0127660
1.1275000,1.1275000,1.1275000,-0.0055189,-0.0004841,-0.1768681,-0.0055189,-0.0057466,-0.0125911
1.1300000,1.1300000,1.1300000,-0.0054451,-0.0004811,-0.1756839,-0.0054451,-0.0056778,-0.0124190
1.1325000,1.1325000,1.1325000,-0.0053724,-0.0004780,-0.1745103,-0.0053724,-0.0056101,-0.0122495
1.1350000,1.1350000,1.1350000,-0.0053008,-0.0004750,-0.1733471,-0.0053008,-0.0055433,-0.0120828
1.1375000,1.1375000,1.1375000,-0.0052304,-0.0004720,-0.1721943,-0.0052304,-0.0054776,-0.0119186
1.1400000,1.1400000,1.1400000,-0.0051610,-0.0004690,-0.1710517,-0.0051610,-0.0054127,-0.0117570
1.1425000,1.1425000,1.1425000,-0.0050928,-0.0004660,-0.1699192,-0.0050928,-0.0053489,-0.0115979
1.1450000,1.1450000,1.1450000,-0.0050255,-0.0004631,-0.1687968,-0.0050255,-0.0052860,-0.0114413
1.1475000,1.1475000,1.1475000,-0.0049593,-0.0004602,-0.1676842,-0.0049593,-0.0052239,-0.0112871
1.1500000,1.1500000,1.1500000,-0.0048942,-0.0004573,-0.1665814,-0.0048942,-0.0051628,-0.0111353
1.1525000,1.1525000,1.1525000,-0.0048300,-0.0004544,-0.1654882,-0.0048300,-0.0051026,-0.0109859
1.1550000,1.1550000,1.1550000,-0.0047668,-0.0004516,-0.1644047,-0.0047668,-0.0050432,-0.0108388
1.1575000,1.1575000,1.1575000,-0.0047046,-0.0004488,-0.1633306,-0.0047046,-0.0049847,-0.0106939
1.1600000,1.1600000,1.1600000,-0.0046433,-0.0004460,-0.1622658,-0.0046433,-0.0049270,-0.0105512
1.1625000,1.1625000,1.1625000,-0.0045829,-0.0004432,-0.1612103,-0.0045829,-0.0048702,-0.0104107
1.1650000,1.1650000,1.1650000,-0.0045235,-0.0004405,-0.1601640,-0.0045235,-0.0048142,-0.0102724
1.1675000,1.1675000,1.1675000,-0.0044650,-0.0004378,-0.1591267,-0.0044650,-0.0047589,-0.0101362
1.1700000,1.1700000,1.1700000,-0.0044073,-0.0004350,-0.1580984,-0.0044073,-0.0047045,-0.0100020
1.1725000,1.1725000,1.1725000,-0.0043505,-0.0004324,-0.1570790,-0.0043505,-0.0046508,-0.0098699
1.1750000,1.1750000,1.1750000,-0.0042946,-0.0004297,-0.1560683,-0.0042946,-0.0045978,-0.0097398
1.1775000,1.1775000,1.1775000,-0.0042395,-0.0004271,-0.1550663,-0.0042395,-0.0045457,-0.0096117
1.1800000,1.1800000,1.1800000,-0.0041852,-0.0004244,-0.1540729,-0.0041852,-0.0044942,-0.0094855
1.1825000,1.1825000,1.1825000,-0.0041318,-0.0004219,-0.1530880,-0.0041318,-0.0044435,-0.0093612
1.1850000,1.1850000,1.1850000,-0.0040791,-0.0004193,-0.1521114,-0.0040791,-0.0043935,-0.0092387
1.1875000,1.1875000,1.1875000,-0.0040272,-0.0004167,-0.1511432,-0.0040272,-0.0043441,-0.0091181
1.1900000,1.1900000,1.1900000,-0.0039761,-0.0004142,-0.1501832,-0.0039761,-0.0042955,-0.0089993
1.1925000,1.1925000,1.1925000,-0.0039257,-0.0004117,-0.1492313,-0.0039257,-0.0042476,-0.0088823
1.1950000,1.1950000,1.1950000,-0.0038761,-0.0004092,-0.1482875,-0.0038761,-0.0042003,-0.0087670
1.1975000,1.1975000,1.1975000,-0.0038272,-0.0004067,-0.1473516,-0.0038272,-0.0041536,-0.0086535
1.2000000,1.2000000,1.2000000,-0.0037791,-0.0004042,-0.1464236,-0.0037791,-0.0041076,-0.0085416
1.2025000,1.2025000,1.2025000,-0.0037316,-0.0004018,-0.1455034,-0.0037316,-0.0040623,-0.0084313
1.2050000,1.2050000,1.2050000,-0.0036849,-0.0003994,-0.1445909,-0.0036849,-0.0040175,-0.0083228
1.2075000,1.2075000,1.2075000,-0.0036388,-0.0003970,-0.1436861,-0.0036388,-0.0039734,-0.0082158
1.2100000,1.2100000,1.2100000,-0.0035934,-0.0003946,-0.1427888,-0.0035934,-0.0039298,-0.0081103
1.2125000,1.2125000,1.2125000,-0.0035486,-0.0003922,-0.1418990,-0.0035486,-0.0038869,-0.0080065
1.2150000,1.2150000,1.2150000,-0.0035046,-0.0003899,-0.1410165,-0.0035046,-0.0038446,-0.0079041
1.2175000,1.2175000,1.2175000,-0.0034611,-0.0003876,-0.1401414,-0.0034611,-0.0038028,-0.0078033
1.2200000,1.2200000,1.2200000,-0.0034183,-0.0003853,-0.1392736,-0.0034183,-0.0037616,-0.0077039
1.2225000,1.2225000,1.2225000,-0.0033761,-0.0003830,-0.1384129,-0.0033761,-0.0037209,-0.0076060
1.2250000,1.2250000,1.2250000,-0.0033345,-0.0003807,-0.1375592,-0.0033345,-0.0036808,-0.0075095
1.2275000,1.2275000,1.2275000,-0.0032935,-0.0003785,-0.1367127,-0.0032935,-0.0036412,-0.0074144
1.2300000,1.2300000,1.2300000,-0.0032530,-0.0003762,-0.1358730,-0.0032530,-0.0036022,-0.0073206
1.2325000,1.2325000,1.2325000,-0.0032132,-0.0003740,-0.1350403,-0.0032132,-0.0035636,-0.0072283
1.2350000,1.2350000,1.2350000,-0.0031739,-0.0003718,-0.1342143,-0.0031739,-0.0035256,-0.0071372
1.2375000,1.2375000,1.2375000,-0.0031352,-0.0003696,-0.1333951,-0.0031352,-0.0034881,-0.0070475
1.2400000,1.2400000,1.2400000,-0.0030971,-0.0003675,-0.1325825,-0.0030971,-0.0034511,-0.0069591
1.2425000,1.2425000,1.2425000,-0.0030594,-0.0003653,-0.1317766,-0.0030594,-0.0034146,-0.0068719
1.2450000,1.2450000,1.2450000,-0.0030224,-0.0003632,-0.1309772,-0.0030224,-0.0033786,-0.0067860
1.2475000,1.2475000,1.2475000,-0.0029858,-0.0003610,-0.1301842,-0.0029858,-0.0033430,-0.0067013
1.2500000,1.2500000,1.2500000,-0.0029498,-0.0003589,-0.1293977,-0.0029498,-0.0033079,-0.0066178
1.2525000,1.2525000,1.2525000,-0.0029142,-0.0003569,-0.1286175,-0.0029142,-0.0032733,-0.0065355
1.2550000,1.2550000,1.2550000,-0.0028792,-0.0003548,-0.1278435,-0.0028792,-0.0032391,-0.0064544
1.2575000,1.2575000,1.2575000,-0.0028446,-0.0003527,-0.1270758,-0.0028446,-0.0032053,-0.0063744
1.2600000,1.2600000,1.2600000,-0.0028106,-0.0003507,-0.1263142,-0.0028106,-0.0031720,-0.0062955
1.2625000,1.2625000,1.2625000,-0.0027770,-0.0003487,-0.1255588,-0.0027770,-0.0031392,-0.0062178
1.2650000,1.2650000,1.2650000,-0.0027439,-0.0003467,-0.1248093,-0.0027439,-0.0031067,-0.0061412
1.2675000,1.2675000,1.2675000,-0.0027112,-0.0003447,-0.1240658,-0.0027112,-0.0030747,-0.0060656
1.2700000,1.2700000,1.2700000,-0.0026790,-0.0003427,-0.1233282,-0.0026790,-0.0030431,-0.0059911
1.2725000,1.2725000,1.2725000,-0.0026472,-0.0003407,-0.1225965,-0.0026472,-0.0030119,-0.0059177
1.2750000,1.2750000,1.2750000,-0.0026159,-0.0003388,-0.1218705,-0.0026159,-0.0029811,-0.0058452
1.2775000,1.2775000,1.2775000,-0.0025850,-0.0003369,-0.1211503,-0.0025850,-0.0029507,-0.0057738
1.2800000,1.2800000,1.2800000,-0.0025546,-0.0003349,-0.1204357,-0.0025546,-0.0029207,-0.0057034
1.2825000,1.2825000,1.2825000,-0.0025245,-0.0003330,-0.1197268,-0.0025245,-0.0028910,-0.0056339
1.2850000,1.2850000,1.2850000,-0.0024949,-0.0003311,-0.1190235,-0.0024949,-0.0028617,-0.0055655
1.2875000,1.2875000,1.2875000,-0.0024657,-0.0003293,-0.1183256,-0.0024657,-0.0028329,-0.0054979
1.2900000,1.2900000,1.2900000,-0.0024368,-0.0003274,-0.1176332,-0.0024368,-0.0028043,-0.0054313
1.2925000,1.2925000,1.2925000,-0.0024084,-0.0003255,-0.1169462,-0.0024084,-0.0027762,-0.0053657
1.2950000,1.2950000,1.2950000,-0.0023804,-0.0003237,-0.1162646,-0.0023804,-0.0027484,-0.0053009
1.2975000,1.2975000,1.2975000,-0.0023527,-0.0003219,-0.1155882,-0.0023527,-0.0027209,-0.0052370
1.3000000,1.3000000,1.3000000,-0.0023254,-0.0003201,-0.1149171,-0.0023254,-0.0026938,-0.0051740
1.3025000,1.3025000,1.3025000,-0.0022985,-0.0003183,-0.1142512,-0.0022985,-0.0026670,-0.0051119
1.3050000,1.3050000,1.3050000,-0.0022719,-0.0003165,-0.1135905,-0.0022719,-0.0026405,-0.0050506
1.3075000,1.3075000,1.3075000,-0.0022457,-0.0003147,-0.1129348,-0.0022457,-0.0026144,-0.0049901
1.3100000,1.3100000,1.3100000,-0.0022199,-0.0003130,-0.1122842,-0.0022199,-0.0025886,-0.0049305
1.3125000,1.3125000,1.3125000,-0.0021944,-0.0003112,-0.1116386,-0.0021944,-0.0025632,-0.0048717
1.3150000,1.3150000,1.3150000,-0.0021692,-0.0003095,-0.1109979,-0.0021692,-0.0025380,-0.0048137
1.3175000,1.3175000,1.3175000,-0.0021444,-0.0003078,-0.1103622,-0.0021444,-0.0025132,-0.0047564
1.3200000,1.3200000,1.3200000,-0.0021199,-0.0003061,-0.1097313,-0.0021199,-0.0024886,-0.0047000
1.3225000,1.3225000,1.3225000,-0.0020957,-0.0003044,-0.1091052,-0.0020957,-0.0024644,-0.0046443
1.3250000,1.3250000,1.3250000,-0.0020719,-0.0003027,-0.1084838,-0.0020719,-0.0024404,-0.0045893
1.3275000,1.3275000,1.3275000,-0.0020484,-0.0003011,-0.1078672,-0.0020484,-0.0024168,-0.0045351
1.3300000,1.3300000,1.3300000,-0.0020251,-0.0002994,-0.1072553,-0.0020251,-0.0023934,-0.0044816
1.3325000,1.3325000,1.3325000,-0.0020022,-0.0002978,-0.1066480,-0.0020022,-0.0023703,-0.0044289
1.3350000,1.3350000,1.3350000,-0.0019796,-0.0002961,-0.1060452,-0.0019796,-0.0023476,-0.0043768
1.3375000,1.3375000,1.3375000,-0.0019573,-0.0002945,-0.1054471,-0.0019573,-0.0023250,-0.0043254
1.3400000,1.3400000,1.3400000,-0.0019353,-0.0002929,-0.1048534,-0.0019353,-0.0023028,-0.0042748
1.3425000,1.3425000,1.3425000,-0.0019136,-0.0002913,-0.1042641,-0.0019136,-0.0022808,-0.0042248
1.3450000,1.3450000,1.3450000,-0.0018921,-0.0002897,-0.1036793,-0.0018921,-0.0022591,-0.0041754
1.3475000,1.3475000,1.3475000,-0.0018710,-0.0002881,-0.1030989,-0.0018710,-0.0022376,-0.0041267
1.3500000,1.3500000,1.3500000,-0.0018501,-0.0002866,-0.1025228,-0.0018501,-0.0022164,-0.0040787
1.3525000,1.3525000,1.3525000,-0.0018294,-0.0002850,-0.1019510,-0.0018294,-0.0021955,-0.0040313
1.3550000,1.3550000,1.3550000,-0.0018091,-0.0002835,-0.1013834,-0.0018091,-0.0021748,-0.0039845
1.3575000,1.3575000,1.3575000,-0.0017890,-0.0002820,-0.1008201,-0.0017890,-0.0021543,-0.0039383
1.3600000,1.3600000,1.3600000,-0.0017692,-0.0002804,-0.1002609,-0.0017692,-0.0021341,-0.0038928
1.3625000,1.3625000,1.3625000,-0.0017496,-0.0002789,-0.0997058,-0.0017496,-0.0021142,-0.0038478
1.3650000,1.3650000,1.3650000,-0.0017303,-0.0002774,-0.0991549,-0.0017303,-0.0020944,-0.0038034
1.3675000,1.3675000,1.3675000,-0.0017112,-0.0002759,-0.0986080,-0.0017112,-0.0020749,-0.0037596
1.3700000,1.3700000,1.3700000,-0.0016924,-0.0002745,-0.0980652,-0.0016924,-0.0020557,-0.0037164
1.3725000,1.3725000,1.3725000,-0.0016738,-0.0002730,-0.0975263,-0.0016738,-0.0020366,-0.0036738
1.3750000,1.3750000,1.3750000,-0.0016555,-0.0002715,-0.0969913,-0.0016555,-0.0020178,-0.0036317
1.3775000,1.3775000,1.3775000,-0.0016374,-0.0002701,-0.0964603,-0.0016374,-0.0019992,-0.0035901
1.3800000,1.3800000,1.3800000,-0.0016195,-0.0002687,-0.0959332,-0.0016195,-0.0019808,-0.0035491
1.3825000,1.3825000,1.3825000,-0.0016019,-0.0002672,-0.0954099,-0.0016019,-0.0019626,-0.0035086
1.3850000,1.3850000,1.3850000,-0.0015844,-0.0002658,-0.0948904,-0.0015844,-0.0019447,-0.0034686
1.3875000,1.3875000,1.3875000,-0.0015672,-0.0002644,-0.0943747,-0.0015672,-0.0019269,-0.0034292
1.3900000,1.3900000,1.3900000,-0.0015502,-0.0002630,-0.0938627,-0.0015502,-0.0019094,-0.0033902
1.3925000,1.3925000,1.3925000,-0.0015335,-0.0002616,-0.0933544,-0.0015335,-0.0018920,-0.0033518
1.3950000,1.3950000,1.3950000,-0.0015169,-0.0002603,-0.0928498,-0.0015169,-0.0018749,-0.0033139
1.3975000,1.3975000,1.3975000,-0.0015006,-0.0002589,-0.0923488,-0.0015006,-0.0018579,-0.0032764
1.4000000,1.4000000,1.4000000,-0.0014844,-0.0002575,-0.0918514,-0.0014844,-0.0018412,-0.0032394
1.4025000,1.4025000,1.4025000,-0.0014685,-0.0002562,-0.0913576,-0.0014685,-0.0018246,-0.0032029
1.4050000,1.4050000,1.4050000,-0.0014527,-0.0002549,-0.0908674,-0.0014527,-0.0018082,-0.0031669
1.4075000,1.4075000,1.4075000,-0.0014372,-0.0002535,-0.0903806,-0.0014372,-0.0017921,-0.0031313
1.4100000,1.4100000,1.4100000,-0.0014218,-0.0002522,-0.0898974,-0.0014218,-0.0017761,-0.0030961
1.4125000,1.4125000,1.4125000,-0.0014067,-0.0002509,-0.0894175,-0.0014067,-0.0017602,-0.0030614
1.4150000,1.4150000,1.4150000,-0.0013917,-0.0002496,-0.0889411,-0.0013917,-0.0017446,-0.0030272
1.4175000,1.4175000,1.4175000,-0.0013769,-0.0002483,-0.0884681,-0.0013769,-0.0017291,-0.0029934
1.4200000,1.4200000,1.4200000,-0.0013623,-0.0002470,-0.0879984,-0.0013623,-0.0017138,-0.0029600
1.4225000,1.4225000,1.4225000,-0.0013479,-0.0002457,-0.0875321,-0.0013479,-0.0016987,-0.0029270
1.4250000,1.4250000,1.4250000,-0.0013336,-0.0002445,-0.0870690,-0.0013336,-0.0016838,-0.0028944
1.4275000,1.4275000,1.4275000,-0.0013196,-0.0002432,-0.0866092,-0.0013196,-0.0016690,-0.0028623
1.4300000,1.4300000,1.4300000,-0.0013057,-0.0002420,-0.0861527,-0.0013057,-0.0016544,-0.0028306
1.4325000,1.4325000,1.4325000,-0.0012919,-0.0002407,-0.0856993,-0.0012919,-0.0016399,-0.0027992
1.4350000,1.4350000,1.4350000,-0.0012784,-0.0002395,-0.0852491,-0.0012784,-0.0016256,-0.0027682
1.4375000,1.4375000,1.4375000,-0.0012650,-0.0002383,-0.0848021,-0.0012650,-0.0016115,-0.0027377
1.4400000,1.4400000,1.4400000,-0.0012518,-0.0002371,-0.0843582,-0.0012518,-0.0015975,-0.0027075
1.4425000,1.4425000,1.4425000,-0.0012387,-0.0002359,-0.0839175,-0.0012387,-0.0015837,-0.0026777
1.4450000,1.4450000,1.4450000,-0.0012258,-0.0002347,-0.0834797,-0.0012258,-0.0015700,-0.0026482
1.4475000,1.4475000,1.4475000,-0.0012130,-0.0002335,-0.0830451,-0.0012130,-0.0015565,-0.0026191
1.4500000,1.4500000,1.4500000,-0.0012004,-0.0002323,-0.0826134,-0.0012004,-0.0015431,-0.0025904
1.4525000,1.4525000,1.4525000,-0.0011880,-0.0002311,-0.0821847,-0.0011880,-0.0015299,-0.0025620
1.4550000,1.4550000,1.4550000,-0.0011757,-0.0002299,-0.0817590,-0.0011757,-0.0015168,-0.0025340
1.4575000,1.4575000,1.4575000,-0.0011636,-0.0002288,-0.0813363,-0.0011636,-0.0015038,-0.0025064
1.4600000,1.4600000,1.4600000,-0.0011516,-0.0002276,-0.0809164,-0.0011516,-0.0014910,-0.0024790
1.4625000,1.4625000,1.4625000,-0.0011397,-0.0002265,-0.0804995,-0.0011397,-0.0014784,-0.0024520
1.4650000,1.4650000,1.4650000,-0.0011280,-0.0002253,-0.0800854,-0.0011280,-0.0014658,-0.0024254
1.4675000,1.4675000,1.4675000,-0.0011164,-0.0002242,-0.0796741,-0.0011164,-0.0014535,-0.0023990
1.4700000,1.4700000,1.4700000,-0.0011050,-0.0002231,-0.0792657,-0.0011050,-0.0014412,-0.0023730
1.4725000,1.4725000,1.4725000,-0.0010937,-0.0002220,-0.0788600,-0.0010937,-0.0014291,-0.0023473
1.4750000,1.4750000,1.4750000,-0.0010825,-0.0002209,-0.0784572,-0.0010825,-0.0014171,-0.0023219
1.4775000,1.4775000,1.4775000,-0.0010715,-0.0002198,-0.0780570,-0.0010715,-0.0014052,-0.0022968
1.4800000,1.4800000,1.4800000,-0.0010606,-0.0002187,-0.0776596,-0.0010606,-0.0013935,-0.0022721
1.4825000,1.4825000,1.4825000,-0.0010498,-0.0002176,-0.0772649,-0.0010498,-0.0013819,-0.0022476
1.4850000,1.4850000,1.4850000,-0.0010392,-0.0002165,-0.0768729,-0.0010392,-0.0013704,-0.0022234
1.4875000,1.4875000,1.4875000,-0.0010287,-0.0002154,-0.0764835,-0.0010287,-0.0013590,-0.0021995
1.4900000,1.4900000,1.4900000,-0.0010183,-0.0002144,-0.0760967,-0.0010183,-0.0013478,-0.0021759
1.4925000,1.4925000,1.4925000,-0.0010080,-0.0002133,-0.0757126,-0.0010080,-0.0013366,-0.0021526
1.4950000,1.4950000,1.4950000,-0.0009979,-0.0002123,-0.0753310,-0.0009979,-0.0013256,-0.0021296
1.4975000,1.4975000,1.4975000,-0.0009878,-0.0002112,-0.0749520,-0.0009878,-0.0013147,-0.0021068
1.5000000,1.5000000,1.5000000,-0.0009779,-0.0002102,-0.0745755,-0.0009779,-0.0013040,-0.0020843
1.5025000,1.5025000,1.5025000,-0.0009681,-0.0002092,-0.0742016,-0.0009681,-0.0012933,-0.0020621
1.5050000,1.5050000,1.5050000,-0.0009584,-0.0002081,-0.0738302,-0.0009584,-0.0012827,-0.0020401
1.5075000,1.5075000,1.5075000,-0.0009489,-0.0002071,-0.0734612,-0.0009489,-0.0012723,-0.0020184
1.5100000,1.5100000,1.5100000,-0.0009394,-0.0002061,-0.0730947,-0.0009394,-0.0012620,-0.0019970
1.5125000,1.5125000,1.5125000,-0.0009301,-0.0002051,-0.0727306,-0.0009301,-0.0012517,-0.0019758
1.5150000,1.5150000,1.5150000,-0.0009208,-0.0002041,-0.0723690,-0.0009208,-0.0012416,-0.0019549
1.5175000,1.5175000,1.5175000,-0.0009117,-0.0002031,-0.0720097,-0.0009117,-0.0012316,-0.0019342
1.5200000,1.5200000,1.5200000,-0.0009027,-0.0002021,-0.0716529,-0.0009027,-0.0012217,-0.0019138
1.5225000,1.5225000,1.5225000,-0.0008937,-0.0002012,-0.0712983,-0.0008937,-0.0012119,-0.0018936
1.5250000,1.5250000,1.5250000,-0.0008849,-0.0002002,-0.0709462,-0.0008849,-0.0012022,-0.0018736
1.5275000,1.5275000,1.5275000,-0.0008762,-0.0001992,-0.0705963,-0.0008762,-0.0011926,-0.0018539
1.5300000,1.5300000,1.5300000,-0.0008676,-0.0001983,-0.0702487,-0.0008676,-0.0011831,-0.0018344
1.5325000,1.5325000,1.5325000,-0.0008591,-0.0001973,-0.0699035,-0.0008591,-0.0011736,-0.0018152
1.5350000,1.5350000,1.5350000,-0.0008506,-0.0001964,-0.0695605,-0.0008506,-0.0011643,-0.0017961
1.5375000,1.5375000,1.5375000,-0.0008423,-0.0001954,-0.0692197,-0.0008423,-0.0011551,-0.0017773
1.5400000,1.5400000,1.5400000,-0.0008341,-0.0001945,-0.0688811,-0.0008341,-0.0011460,-0.0017587
1.5425000,1.5425000,1.5425000,-0.0008260,-0.0001935,-0.0685448,-0.0008260,-0.0011369,-0.0017404
1.5450000,1.5450000,1.5450000,-0.0008179,-0.0001926,-0.0682107,-0.0008179,-0.0011280,-0.0017222
1.5475000,1.5475000,1.5475000,-0.0008100,-0.0001917,-0.0678787,-0.0008100,-0.0011191,-0.0017043
1.5500000,1.5500000,1.5500000,-0.0008021,-0.0001908,-0.0675489,-0.0008021,-0.0011104,-0.0016865
1.5525000,1.5525000,1.5525000,-0.0007943,-0.0001899,-0.0672212,-0.0007943,-0.0011017,-0.0016690
1.5550000,1.5550000,1.5550000,-0.0007866,-0.0001890,-0.0668956,-0.0007866,-0.0010931,-0.0016517
1.5575000,1.5575000,1.5575000,-0.0007790,-0.0001881,-0.0665721,-0.0007790,-0.0010846,-0.0016345
1.5600000,1.5600000,1.5600000,-0.0007715,-0.0001872,-0.0662508,-0.0007715,-0.0010762,-0.0016176
1.5625000,1.5625000,1.5625000,-0.0007641,-0.0001863,-0.0659314,-0.0007641,-0.0010679,-0.0016009
1.5650000,1.5650000,1.5650000,-0.0007567,-0.0001854,-0.0656142,-0.0007567,-0.0010596,-0.0015843
1.5675000,1.5675000,1.5675000,-0.0007495,-0.0001846,-0.0652990,-0.0007495,-0.0010515,-0.0015680
1.5700000,1.5700000,1.5700000,-0.0007423,-0.0001837,-0.0649857,-0.0007423,-0.0010434,-0.0015518
1.5725000,1.5725000,1.5725000,-0.0007352,-0.0001828,-0.0646745,-0.0007352,-0.0010354,-0.0015358
1.5750000,1.5750000,1.5750000,-0.0007282,-0.0001820,-0.0643653,-0.0007282,-0.0010274,-0.0015200
1.5775000,1.5775000,1.5775000,-0.0007212,-0.0001811,-0.0640581,-0.0007212,-0.0010196,-0.0015044
1.5800000,1.5800000,1.5800000,-0.0007144,-0.0001803,-0.0637528,-0.0007144,-0.0010118,-0.0014890
1.5825000,1.5825000,1.5825000,-0.0007076,-0.0001794,-0.0634494,-0.0007076,-0.0010041,-0.0014737
1.5850000,1.5850000,1.5850000,-0.0007009,-0.0001786,-0.0631480,-0.0007009,-0.0009965,-0.0014586
1.5875000,1.5875000,1.5875000,-0.0006942,-0.0001778,-0.0628485,-0.0006942,-0.0009890,-0.0014437
1.5900000,1.5900000,1.5900000,-0.0006877,-0.0001770,-0.0625509,-0.0006877,-0.0009815,-0.0014289
1.5925000,1.5925000,1.5925000,-0.0006812,-0.0001761,-0.0622551,-0.0006812,-0.0009741,-0.0014144
1.5950000,1.5950000,1.5950000,-0.0006747,-0.0001753,-0.0619612,-0.0006747,-0.0009668,-0.0013999
1.5975000,1.5975000,1.5975000,-0.0006684,-0.0001745,-0.0616692,-0.0006684,-0.0009595,-0.0013857
