# r[nm],d[nm],daligned[nm],U(d)[kj/mol],V(d)[e/nm],Uslab(d)[kJ/mol],UC(d)[kJ/mol],UK(d)[kJ/mol],UCl(d)[kJ/mol]
0.1925000,0.1925000,0.1925000,1790.0616811,0.2940971,126.7535265,1790.0616811,1148.6749691,inf
0.1950000,0.1950000,0.1950000,1546.4904077,0.2737571,110.6021309,1546.4904077,992.9489326,inf
0.1975000,0.1975000,0.1975000,1337.7636093,0.2620623,96.6904656,1337.7636093,858.7936846,inf
0.2000000,0.2000000,0.2000000,1159.2905322,0.2516318,84.6817365,1159.2905322,743.8733524,inf
0.2025000,0.2025000,0.2025000,1006.4237662,0.2418001,74.2928370,1006.4237662,645.4480666,inf
0.2050000,0.2050000,0.2050000,875.2365154,0.2324756,65.2836889,875.2365154,561.0292540,inf
0.2075000,0.2075000,0.2075000,762.4410820,0.2236199,57.4479527,762.4410820,488.4986808,inf
0.2100000,0.2100000,0.2100000,665.2813384,0.2152039,50.6051236,665.2813384,426.0731166,inf
0.2125000,0.2125000,0.2125000,581.4417821,0.2072015,44.5951377,581.4417821,372.2523880,inf
0.2150000,0.2150000,0.2150000,508.9727114,0.1995880,39.2772919,508.9727114,325.7722386,inf
0.2175000,0.2175000,0.2175000,446.2286852,0.1923373,34.5338902,446.2286852,285.5644854,1809.8680031
0.2200000,0.2200000,0.2200000,391.8177078,0.1854168,30.2751829,391.8177078,250.7241198,1590.9069627
0.2225000,0.2225000,0.2225000,344.5591182,0.1787798,26.4396841,344.5591182,220.4826285,1400.3452769
0.2250000,0.2250000,0.2250000,303.4487495,0.1723589,22.9874270,303.4487495,194.1866290,1234.2390128
0.2275000,0.2275000,0.2275000,267.6303904,0.1660682,19.8899541,267.6303904,171.2806440,1089.2297937
0.2300000,0.2300000,0.2300000,236.3727301,0.1598177,17.1223960,236.3727301,151.2927354,962.4522240
0.2325000,0.2325000,0.2325000,209.0508156,0.1535384,14.6596716,209.0508156,133.8219489,851.4568124
0.2350000,0.2350000,0.2350000,185.1308358,0.1472037,12.4757725,185.1308358,118.5270153,754.1456119
0.2375000,0.2375000,0.2375000,164.1570950,0.1408383,10.5444072,164.1570950,105.1162509,668.7182479
0.2400000,0.2400000,0.2400000,145.7404051,0.1345069,8.8398948,145.7404051,93.3388841,593.6263985
0.2425000,0.2425000,0.2425000,129.5476199,0.1282916,7.3378643,129.5476199,82.9780608,527.5352918
0.2450000,0.2450000,0.2450000,115.2923574,0.1222699,6.0156885,115.2923574,73.8456338,469.2913833
0.2475000,0.2475000,0.2475000,102.7270357,0.1165007,4.8527021,102.7270357,65.7785786,417.8958132
0.2500000,0.2500000,0.2500000,91.6362994,0.1110211,3.8302630,91.6362994,58.6365734,372.4831591
0.2525000,0.2525000,0.2525000,81.8318542,0.1058503,2.9317016,81.8318542,52.3000637,332.3044269
0.2550000,0.2550000,0.2550000,73.1486818,0.1009971,2.1421831,73.1486818,46.6681622,296.7126614
0.2575000,0.2575000,0.2575000,65.4424980,0.0964663,1.4485039,65.4424980,41.6560711,265.1496760
0.2600000,0.2600000,0.2600000,58.5881215,0.0922610,0.8388357,58.5881215,37.1921628,237.1332729
0.2625000,0.2625000,0.2625000,52.4782207,0.0883811,0.3024381,52.4782207,33.2151248,212.2453035
0.2650000,0.2650000,0.2650000,47.0218676,0.0848189,-0.1706114,47.0218676,29.6715569,190.1212588
0.2675000,0.2675000,0.2675000,42.1425636,0.0815560,-0.5895922,42.1425636,26.5141933,170.4417721
0.2700000,0.2700000,0.2700000,37.7757969,0.0785634,-0.9631472,37.7757969,23.7007218,152.9259226
0.2725000,0.2725000,0.2725000,33.8664949,0.0758041,-1.2991099,33.8664949,21.1930542,137.3259391
0.2750000,0.2750000,0.2750000,30.3667702,0.0732380,-1.6042260,30.3667702,18.9568906,123.4228620
0.2775000,0.2775000,0.2775000,27.2341961,0.0708269,-1.8838993,27.2341961,16.9614429,111.0228286
0.2800000,0.2800000,0.2800000,24.4306353,0.0685378,-2.1420817,24.4306353,15.1792287,99.9537922
0.2825000,0.2825000,0.2825000,21.9215187,0.0663447,-2.3813648,21.9215187,13.5858766,90.0626285
0.2850000,0.2850000,0.2850000,19.6754284,0.0642300,-2.6032458,19.6754284,12.1599125,81.2126941
0.2875000,0.2875000,0.2875000,17.6638614,0.0621832,-2.8084851,17.6638614,10.8825146,73.2819467
0.2900000,0.2900000,0.2900000,15.8610809,0.0602006,-2.9974602,15.8610809,9.7372404,66.1617008
0.2925000,0.2925000,0.2925000,14.2439975,0.0582833,-3.1704447,14.2439975,8.7097367,59.7559522
0.2950000,0.2950000,0.2950000,12.7920438,0.0564348,-3.3277841,12.7920438,7.7874511,53.9810119
0.2975000,0.2975000,0.2975000,11.4870229,0.0546602,-3.4699742,11.4870229,6.9593629,48.7650561
0.3000000,0.3000000,0.3000000,10.3129247,0.0529636,-3.5976702,10.3129247,6.2157448,44.0472416
0.3025000,0.3025000,0.3025000,9.2557131,0.0513480,-3.7116575,9.2557131,5.5479612,39.7762784
0.3050000,0.3050000,0.3050000,8.3030954,0.0498146,-3.8128099,8.3030954,4.9483027,35.9086392
0.3075000,0.3075000,0.3075000,7.4442913,0.0483625,-3.9020520,7.4442913,4.4098509,32.4067416
0.3100000,0.3100000,0.3100000,6.6698128,0.0469892,-3.9803313,6.6698128,3.9263694,29.2373991
0.3125000,0.3125000,0.3125000,5.9712676,0.0456908,-4.0486003,5.9712676,3.4922168,26.3706798
0.3150000,0.3150000,0.3150000,5.3411892,0.0444621,-4.1078002,5.3411892,3.1022761,23.7791616
0.3175000,0.3175000,0.3175000,4.7728950,0.0432962,-4.1588452,4.7728950,2.7519000,21.4374946
0.3200000,0.3200000,0.3200000,4.2603689,0.0421853,-4.2026015,4.2603689,2.4368675,19.3221652
0.3225000,0.3225000,0.3225000,3.7981666,0.0411200,-4.2398650,3.7981666,2.1533494,17.4113778
0.3250000,0.3250000,0.3250000,3.3813409,0.0400897,-4.2713378,3.3813409,1.8978805,15.6849992
0.3275000,0.3275000,0.3275000,3.0053828,0.0390832,-4.2976098,3.0053828,1.6673364,14.1245299
0.3300000,0.3300000,0.3300000,2.6661774,0.0380892,-4.3191491,2.6661774,1.4589155,12.7130845
0.3325000,0.3325000,0.3325000,2.3599698,0.0370963,-4.3363055,2.3599698,1.2701209,11.4353642
0.3350000,0.3350000,0.3350000,2.0833389,0.0360943,-4.3493231,2.0833389,1.0987448,10.2776137
0.3375000,0.3375000,0.3375000,1.8331773,0.0350742,-4.3583621,1.8331773,0.9428498,9.2275554
0.3400000,0.3400000,0.3400000,1.6066742,0.0340292,-4.3635233,1.6066742,0.8007467,8.2742979
0.3425000,0.3425000,0.3425000,1.4013004,0.0329548,-4.3648751,1.4013004,0.6709694,7.4082237
0.3450000,0.3450000,0.3450000,1.2147940,0.0318493,-4.3624808,1.2147940,0.5522446,6.6208593
0.3475000,0.3475000,0.3475000,1.0451449,0.0307137,-4.3564237,1.0451449,0.4434621,5.9047385
0.3500000,0.3500000,0.3500000,0.8905771,0.0295515,-4.3468292,0.8905771,0.3436459,5.2532640
0.3525000,0.3525000,0.3525000,0.7495281,0.0283681,-4.3338791,0.7495281,0.2519300,4.6605773
0.3550000,0.3550000,0.3550000,0.6206241,0.0271699,-4.3178141,0.6206241,0.1675393,4.1214403
0.3575000,0.3575000,0.3575000,0.5026547,0.0259643,-4.2989253,0.5026547,0.0897753,3.6311329
0.3600000,0.3600000,0.3600000,0.3945475,0.0247584,-4.2775354,0.3945475,0.0180044,3.1853683
0.3625000,0.3625000,0.3625000,0.2953463,0.0235592,-4.2539744,0.2953463,-0.0483499,2.7802264
0.3650000,0.3650000,0.3650000,0.2041927,0.0223727,-4.2285566,0.2041927,-0.1098134,2.4121038
0.3675000,0.3675000,0.3675000,0.1203129,0.0212034,-4.2015615,0.1203129,-0.1668643,2.0776774
0.3700000,0.3700000,0.3700000,0.0430071,0.0200547,-4.1732208,0.0430071,-0.2199345,1.7738793
0.3725000,0.3725000,0.3725000,-0.0283587,0.0189280,-4.1437123,-0.0283587,-0.2694084,1.4978801
0.3750000,0.3750000,0.3750000,-0.0943585,0.0178233,-4.1131600,-0.0943585,-0.3156211,1.2470774
0.3775000,0.3775000,0.3775000,-0.1555114,0.0167398,-4.0816381,-0.1555114,-0.3588577,1.0190866
0.3800000,0.3800000,0.3800000,-0.2122835,0.0156759,-4.0491792,-0.2122835,-0.3993527,0.8117337
0.3825000,0.3825000,0.3825000,-0.2650888,0.0146296,-4.0157842,-0.2650888,-0.4372929,0.6230465
0.3850000,0.3850000,0.3850000,-0.3142898,0.0135994,-3.9814333,-0.3142898,-0.4728209,0.4512443
0.3875000,0.3875000,0.3875000,-0.3601975,0.0125839,-3.9460973,-0.3601975,-0.5060416,0.2947248
0.3900000,0.3900000,0.3900000,-0.4030728,0.0115827,-3.9097467,-0.4030728,-0.5370273,0.1520479
0.3925000,0.3925000,0.3925000,-0.4431301,0.0105960,-3.8723597,-0.4431301,-0.5658244,0.0219187
0.3950000,0.3950000,0.3950000,-0.4805418,0.0096255,-3.8339279,-0.4805418,-0.5924597,-0.0968308
0.3975000,0.3975000,0.3975000,-0.5154436,0.0086742,-3.7944594,-0.5154436,-0.6169472,-0.2052580
0.4000000,0.4000000,0.4000000,-0.5479407,0.0077468,-3.7539805,-0.5479407,-0.6392940,-0.3043237
0.4025000,0.4025000,0.4025000,-0.5781133,0.0068493,-3.7125347,-0.5781133,-0.6595063,-0.3949033
0.4050000,0.4050000,0.4050000,-0.6060225,0.0059893,-3.6701819,-0.6060225,-0.6775940,-0.4777958
0.4075000,0.4075000,0.4075000,-0.6317160,0.0051750,-3.6269953,-0.6317160,-0.6935751,-0.5537303
0.4100000,0.4100000,0.4100000,-0.6552327,0.0044149,-3.5830590,-0.6552327,-0.7074820,-0.6233702
0.4125000,0.4125000,0.4125000,-0.6766077,0.0037170,-3.5384651,-0.6766077,-0.7193680,-0.6873160
0.4150000,0.4150000,0.4150000,-0.6958760,0.0030882,-3.4933105,-0.6958760,-0.7293153,-0.7461069
0.4175000,0.4175000,0.4175000,-0.7130761,0.0025337,-3.4476945,-0.7130761,-0.7374415,-0.8002218
0.4200000,0.4200000,0.4200000,-0.7282554,0.0020568,-3.4017166,-0.7282554,-0.7439025,-0.8500795
0.4225000,0.4225000,0.4225000,-0.7414767,0.0016595,-3.3554745,-0.7414767,-0.7488885,-0.8960416
0.4250000,0.4250000,0.4250000,-0.7528250,0.0013423,-3.3090628,-0.7528250,-0.7526143,-0.9384147
0.4275000,0.4275000,0.4275000,-0.7624144,0.0011052,-3.2625714,-0.7624144,-0.7553021,-0.9774555
0.4300000,0.4300000,0.4300000,-0.7703911,0.0009478,-3.2160852,-0.7703911,-0.7571613,-1.0133761
0.4325000,0.4325000,0.4325000,-0.7769312,0.0008698,-3.1696831,-0.7769312,-0.7583689,-1.0463500
0.4350000,0.4350000,0.4350000,-0.7822319,0.0008705,-3.1234381,-0.7822319,-0.7590540,-1.0765186
0.4375000,0.4375000,0.4375000,-0.7864973,0.0009487,-3.0774167,-0.7864973,-0.7592907,-1.1039976
0.4400000,0.4400000,0.4400000,-0.7899207,0.0011017,-3.0316794,-0.7899207,-0.7590980,-1.1288830
0.4425000,0.4425000,0.4425000,-0.7926666,0.0013252,-2.9862803,-0.7926666,-0.7584483,-1.1512577
0.4450000,0.4450000,0.4450000,-0.7948574,0.0016124,-2.9412680,-0.7948574,-0.7572800,-1.1711960
0.4475000,0.4475000,0.4475000,-0.7965646,0.0019547,-2.8966850,-0.7965646,-0.7555124,-1.1887689
0.4500000,0.4500000,0.4500000,-0.7978090,0.0023414,-2.8525690,-0.7978090,-0.7530597,-1.2040487
0.4525000,0.4525000,0.4525000,-0.7985667,0.0027607,-2.8089526,-0.7985667,-0.7498436,-1.2171134
0.4550000,0.4550000,0.4550000,-0.7987796,0.0032003,-2.7658638,-0.7987796,-0.7458011,-1.2280521
0.4575000,0.4575000,0.4575000,-0.7983687,0.0036483,-2.7233263,-0.7983687,-0.7408901,-1.2369694
0.4600000,0.4600000,0.4600000,-0.7972478,0.0040933,-2.6813603,-0.7972478,-0.7350914,-1.2439902
0.4625000,0.4625000,0.4625000,-0.7953342,0.0045259,-2.6399820,-0.7953342,-0.7284082,-1.2492608
0.4650000,0.4650000,0.4650000,-0.7925584,0.0049378,-2.5992049,-0.7925584,-0.7208637,-1.2529476
0.4675000,0.4675000,0.4675000,-0.7888695,0.0053229,-2.5590394,-0.7888695,-0.7124987,-1.2552312
0.4700000,0.4700000,0.4700000,-0.7842380,0.0056765,-2.5194932,-0.7842380,-0.7033672,-1.2562977
0.4725000,0.4725000,0.4725000,-0.7786567,0.0059959,-2.4805720,-0.7786567,-0.6935335,-1.2563267
0.4750000,0.4750000,0.4750000,-0.7721392,0.0062794,-2.4422790,-0.7721392,-0.6830682,-1.2554794
0.4775000,0.4775000,0.4775000,-0.7647170,0.0065269,-2.4046161,-0.7647170,-0.6720457,-1.2538877
0.4800000,0.4800000,0.4800000,-0.7564372,0.0067387,-2.3675831,-0.7564372,-0.6605414,-1.2516470
0.4825000,0.4825000,0.4825000,-0.7473584,0.0069164,-2.3311787,-0.7473584,-0.6486298,-1.2488128
0.4850000,0.4850000,0.4850000,-0.7375476,0.0070617,-2.2954000,-0.7375476,-0.6363831,-1.2454026
0.4875000,0.4875000,0.4875000,-0.7270774,0.0071768,-2.2602433,-0.7270774,-0.6238698,-1.2414004
0.4900000,0.4900000,0.4900000,-0.7160230,0.0072640,-2.2257038,-0.7160230,-0.6111541,-1.2367655
0.4925000,0.4925000,0.4925000,-0.7044602,0.0073258,-2.1917759,-0.7044602,-0.5982952,-1.2314409
0.4950000,0.4950000,0.4950000,-0.6924638,0.0073648,-2.1584532,-0.6924638,-0.5853475,-1.2253631
0.4975000,0.4975000,0.4975000,-0.6801057,0.0073833,-2.1257287,-0.6801057,-0.5723603,-1.2184706
0.5000000,0.5000000,0.5000000,-0.6674546,0.0073835,-2.0935951,-0.6674546,-0.5593775,-1.2107100
0.5025000,0.5025000,0.5025000,-0.6545747,0.0073678,-2.0620442,-0.6545747,-0.5464385,-1.2020414
0.5050000,0.5050000,0.5050000,-0.6415257,0.0073381,-2.0310679,-0.6415257,-0.5335779,-1.1924409
0.5075000,0.5075000,0.5075000,-0.6283624,0.0072962,-2.0006574,-0.6283624,-0.5208260,-1.1819020
0.5100000,0.5100000,0.5100000,-0.6151346,0.0072439,-1.9708041,-0.6151346,-0.5082091,-1.1704350
0.5125000,0.5125000,0.5125000,-0.6018873,0.0071826,-1.9414987,-0.6018873,-0.4957497,-1.1580660
0.5150000,0.5150000,0.5150000,-0.5886606,0.0071138,-1.9127322,-0.5886606,-0.4834672,-1.1448346
0.5175000,0.5175000,0.5175000,-0.5754903,0.0070388,-1.8844952,-0.5754903,-0.4713777,-1.1307920
0.5200000,0.5200000,0.5200000,-0.5624081,0.0069585,-1.8567784,-0.5624081,-0.4594946,-1.1159981
0.5225000,0.5225000,0.5225000,-0.5494413,0.0068740,-1.8295724,-0.5494413,-0.4478289,-1.1005193
0.5250000,0.5250000,0.5250000,-0.5366142,0.0067861,-1.8028677,-0.5366142,-0.4363895,-1.0844262
0.5275000,0.5275000,0.5275000,-0.5239471,0.0066956,-1.7766550,-0.5239471,-0.4251830,-1.0677914
0.5300000,0.5300000,0.5300000,-0.5114578,0.0066031,-1.7509249,-0.5114578,-0.4142148,-1.0506882
0.5325000,0.5325000,0.5325000,-0.4991610,0.0065092,-1.7256682,-0.4991610,-0.4034882,-1.0331886
0.5350000,0.5350000,0.5350000,-0.4870692,0.0064144,-1.7008755,-0.4870692,-0.3930057,-1.0153628
0.5375000,0.5375000,0.5375000,-0.4751924,0.0063191,-1.6765378,-0.4751924,-0.3827684,-0.9972780
0.5400000,0.5400000,0.5400000,-0.4635388,0.0062237,-1.6526460,-0.4635388,-0.3727763,-0.9789976
0.5425000,0.5425000,0.5425000,-0.4521147,0.0061285,-1.6291912,-0.4521147,-0.3630286,-0.9605813
0.5450000,0.5450000,0.5450000,-0.4409250,0.0060338,-1.6061645,-0.4409250,-0.3535240,-0.9420841
0.5475000,0.5475000,0.5475000,-0.4299730,0.0059397,-1.5835574,-0.4299730,-0.3442601,-0.9235570
0.5500000,0.5500000,0.5500000,-0.4192610,0.0058466,-1.5613611,-0.4192610,-0.3352344,-0.9050464
0.5525000,0.5525000,0.5525000,-0.4087900,0.0057545,-1.5395674,-0.4087900,-0.3264436,-0.8865942
0.5550000,0.5550000,0.5550000,-0.3985603,0.0056635,-1.5181679,-0.3985603,-0.3178842,-0.8682384
0.5575000,0.5575000,0.5575000,-0.3885713,0.0055739,-1.4971545,-0.3885713,-0.3095523,-0.8500127
0.5600000,0.5600000,0.5600000,-0.3788215,0.0054855,-1.4765192,-0.3788215,-0.3014438,-0.8319471
0.5625000,0.5625000,0.5625000,-0.3693091,0.0053987,-1.4562541,-0.3693091,-0.2935544,-0.8140680
0.5650000,0.5650000,0.5650000,-0.3600316,0.0053133,-1.4363516,-0.3600316,-0.2858795,-0.7963986
0.5675000,0.5675000,0.5675000,-0.3509861,0.0052294,-1.4168041,-0.3509861,-0.2784145,-0.7789587
0.5700000,0.5700000,0.5700000,-0.3421694,0.0051471,-1.3976043,-0.3421694,-0.2711548,-0.7617655
0.5725000,0.5725000,0.5725000,-0.3335778,0.0050663,-1.3787448,-0.3335778,-0.2640954,-0.7448335
0.5750000,0.5750000,0.5750000,-0.3252076,0.0049871,-1.3602186,-0.3252076,-0.2572316,-0.7281751
0.5775000,0.5775000,0.5775000,-0.3170547,0.0049095,-1.3420187,-0.3170547,-0.2505587,-0.7118001
0.5800000,0.5800000,0.5800000,-0.3091148,0.0048334,-1.3241383,-0.3091148,-0.2440716,-0.6957166
0.5825000,0.5825000,0.5825000,-0.3013837,0.0047589,-1.3065708,-0.3013837,-0.2377658,-0.6799311
0.5850000,0.5850000,0.5850000,-0.2938568,0.0046860,-1.2893096,-0.2938568,-0.2316363,-0.6644483
0.5875000,0.5875000,0.5875000,-0.2865298,0.0046146,-1.2723484,-0.2865298,-0.2256785,-0.6492717
0.5900000,0.5900000,0.5900000,-0.2793980,0.0045446,-1.2556809,-0.2793980,-0.2198878,-0.6344032
0.5925000,0.5925000,0.5925000,-0.2724568,0.0044762,-1.2393011,-0.2724568,-0.2142596,-0.6198441
0.5950000,0.5950000,0.5950000,-0.2657017,0.0044092,-1.2232029,-0.2657017,-0.2087893,-0.6055942
0.5975000,0.5975000,0.5975000,-0.2591281,0.0043436,-1.2073806,-0.2591281,-0.2034725,-0.5916529
0.6000000,0.6000000,0.6000000,-0.2527315,0.0042794,-1.1918284,-0.2527315,-0.1983049,-0.5780186
0.6025000,0.6025000,0.6025000,-0.2465073,0.0042166,-1.1765407,-0.2465073,-0.1932823,-0.5646891
0.6050000,0.6050000,0.6050000,-0.2404512,0.0041552,-1.1615122,-0.2404512,-0.1884005,-0.5516615
0.6075000,0.6075000,0.6075000,-0.2345586,0.0040950,-1.1467374,-0.2345586,-0.1836555,-0.5389327
0.6100000,0.6100000,0.6100000,-0.2288252,0.0040361,-1.1322112,-0.2288252,-0.1790432,-0.5264988
0.6125000,0.6125000,0.6125000,-0.2232469,0.0039785,-1.1179286,-0.2232469,-0.1745599,-0.5143559
0.6150000,0.6150000,0.6150000,-0.2178194,0.0039221,-1.1038844,-0.2178194,-0.1702017,-0.5024996
0.6175000,0.6175000,0.6175000,-0.2125385,0.0038669,-1.0900740,-0.2125385,-0.1659649,-0.4909251
0.6200000,0.6200000,0.6200000,-0.2074003,0.0038128,-1.0764925,-0.2074003,-0.1618461,-0.4796278
0.6225000,0.6225000,0.6225000,-0.2024008,0.0037598,-1.0631352,-0.2024008,-0.1578417,-0.4686026
0.6250000,0.6250000,0.6250000,-0.1975362,0.0037080,-1.0499978,-0.1975362,-0.1539484,-0.4578443
0.6275000,0.6275000,0.6275000,-0.1928026,0.0036572,-1.0370756,-0.1928026,-0.1501628,-0.4473477
0.6300000,0.6300000,0.6300000,-0.1881965,0.0036075,-1.0243645,-0.1881965,-0.1464818,-0.4371076
0.6325000,0.6325000,0.6325000,-0.1837141,0.0035588,-1.0118602,-0.1837141,-0.1429023,-0.4271184
0.6350000,0.6350000,0.6350000,-0.1793521,0.0035110,-0.9995585,-0.1793521,-0.1394212,-0.4173749
0.6375000,0.6375000,0.6375000,-0.1751069,0.0034643,-0.9874555,-0.1751069,-0.1360357,-0.4078716
0.6400000,0.6400000,0.6400000,-0.1709753,0.0034184,-0.9755471,-0.1709753,-0.1327428,-0.3986032
0.6425000,0.6425000,0.6425000,-0.1669541,0.0033735,-0.9638295,-0.1669541,-0.1295399,-0.3895643
0.6450000,0.6450000,0.6450000,-0.1630400,0.0033295,-0.9522990,-0.1630400,-0.1264242,-0.3807494
0.6475000,0.6475000,0.6475000,-0.1592300,0.0032863,-0.9409519,-0.1592300,-0.1233933,-0.3721534
0.6500000,0.6500000,0.6500000,-0.1555212,0.0032440,-0.9297846,-0.1555212,-0.1204444,-0.3637711
0.6525000,0.6525000,0.6525000,-0.1519106,0.0032025,-0.9187935,-0.1519106,-0.1175754,-0.3555971
0.6550000,0.6550000,0.6550000,-0.1483955,0.0031618,-0.9079753,-0.1483955,-0.1147836,-0.3476265
0.6575000,0.6575000,0.6575000,-0.1449730,0.0031218,-0.8973265,-0.1449730,-0.1120670,-0.3398542
0.6600000,0.6600000,0.6600000,-0.1416406,0.0030826,-0.8868439,-0.1416406,-0.1094232,-0.3322753
0.6625000,0.6625000,0.6625000,-0.1383956,0.0030442,-0.8765244,-0.1383956,-0.1068502,-0.3248849
0.6650000,0.6650000,0.6650000,-0.1352355,0.0030065,-0.8663646,-0.1352355,-0.1043457,-0.3176782
0.6675000,0.6675000,0.6675000,-0.1321580,0.0029694,-0.8563617,-0.1321580,-0.1019079,-0.3106507
0.6700000,0.6700000,0.6700000,-0.1291606,0.0029331,-0.8465125,-0.1291606,-0.0995347,-0.3037976
0.6725000,0.6725000,0.6725000,-0.1262410,0.0028974,-0.8368142,-0.1262410,-0.0972243,-0.2971145
0.6750000,0.6750000,0.6750000,-0.1233971,0.0028624,-0.8272639,-0.1233971,-0.0949747,-0.2905971
0.6775000,0.6775000,0.6775000,-0.1206267,0.0028280,-0.8178588,-0.1206267,-0.0927844,-0.2842410
0.6800000,0.6800000,0.6800000,-0.1179276,0.0027942,-0.8085962,-0.1179276,-0.0906514,-0.2780421
0.6825000,0.6825000,0.6825000,-0.1152979,0.0027610,-0.7994733,-0.1152979,-0.0885741,-0.2719962
0.6850000,0.6850000,0.6850000,-0.1127355,0.0027284,-0.7904876,-0.1127355,-0.0865510,-0.2660993
0.6875000,0.6875000,0.6875000,-0.1102386,0.0026964,-0.7816365,-0.1102386,-0.0845805,-0.2603475
0.6900000,0.6900000,0.6900000,-0.1078053,0.0026649,-0.7729175,-0.1078053,-0.0826610,-0.2547371
0.6925000,0.6925000,0.6925000,-0.1054339,0.0026340,-0.7643282,-0.1054339,-0.0807910,-0.2492643
0.6950000,0.6950000,0.6950000,-0.1031224,0.0026036,-0.7558661,-0.1031224,-0.0789692,-0.2439255
0.6975000,0.6975000,0.6975000,-0.1008694,0.0025737,-0.7475289,-0.1008694,-0.0771941,-0.2387171
0.7000000,0.7000000,0.7000000,-0.0986730,0.0025443,-0.7393143,-0.0986730,-0.0754645,-0.2336357
0.7025000,0.7025000,0.7025000,-0.0965318,0.0025154,-0.7312201,-0.0965318,-0.0737789,-0.2286780
0.7050000,0.7050000,0.7050000,-0.0944442,0.0024870,-0.7232441,-0.0944442,-0.0721362,-0.2238407
0.7075000,0.7075000,0.7075000,-0.0924087,0.0024590,-0.7153842,-0.0924087,-0.0705352,-0.2191206
0.7100000,0.7100000,0.7100000,-0.0904238,0.0024316,-0.7076381,-0.0904238,-0.0689746,-0.2145146
0.7125000,0.7125000,0.7125000,-0.0884882,0.0024045,-0.7000039,-0.0884882,-0.0674534,-0.2100198
0.7150000,0.7150000,0.7150000,-0.0866004,0.0023779,-0.6924796,-0.0866004,-0.0659703,-0.2056331
0.7175000,0.7175000,0.7175000,-0.0847591,0.0023518,-0.6850632,-0.0847591,-0.0645244,-0.2013517
0.7200000,0.7200000,0.7200000,-0.0829631,0.0023260,-0.6777528,-0.0829631,-0.0631146,-0.1971729
0.7225000,0.7225000,0.7225000,-0.0812110,0.0023007,-0.6705464,-0.0812110,-0.0617399,-0.1930939
0.7250000,0.7250000,0.7250000,-0.0795018,0.0022757,-0.6634423,-0.0795018,-0.0603993,-0.1891121
0.7275000,0.7275000,0.7275000,-0.0778342,0.0022512,-0.6564386,-0.0778342,-0.0590918,-0.1852250
0.7300000,0.7300000,0.7300000,-0.0762070,0.0022270,-0.6495336,-0.0762070,-0.0578165,-0.1814300
0.7325000,0.7325000,0.7325000,-0.0746193,0.0022032,-0.6427255,-0.0746193,-0.0565726,-0.1777248
0.7350000,0.7350000,0.7350000,-0.0730698,0.0021798,-0.6360126,-0.0730698,-0.0553592,-0.1741070
0.7375000,0.7375000,0.7375000,-0.0715576,0.0021567,-0.6293933,-0.0715576,-0.0541754,-0.1705743
0.7400000,0.7400000,0.7400000,-0.0700816,0.0021340,-0.6228659,-0.0700816,-0.0530205,-0.1671246
0.7425000,0.7425000,0.7425000,-0.0686409,0.0021117,-0.6164289,-0.0686409,-0.0518936,-0.1637555
0.7450000,0.7450000,0.7450000,-0.0672345,0.0020896,-0.6100807,-0.0672345,-0.0507939,-0.1604651
0.7475000,0.7475000,0.7475000,-0.0658615,0.0020679,-0.6038197,-0.0658615,-0.0497208,-0.1572512
0.7500000,0.7500000,0.7500000,-0.0645211,0.0020465,-0.5976445,-0.0645211,-0.0486735,-0.1541120
0.7525000,0.7525000,0.7525000,-0.0632122,0.0020255,-0.5915536,-0.0632122,-0.0476513,-0.1510454
0.7550000,0.7550000,0.7550000,-0.0619342,0.0020047,-0.5855456,-0.0619342,-0.0466535,-0.1480496
0.7575000,0.7575000,0.7575000,-0.0606861,0.0019842,-0.5796190,-0.0606861,-0.0456795,-0.1451227
0.7600000,0.7600000,0.7600000,-0.0594672,0.0019641,-0.5737725,-0.0594672,-0.0447287,-0.1422631
0.7625000,0.7625000,0.7625000,-0.0582767,0.0019442,-0.5680047,-0.0582767,-0.0438004,-0.1394689
0.7650000,0.7650000,0.7650000,-0.0571139,0.0019246,-0.5623143,-0.0571139,-0.0428940,-0.1367384
0.7675000,0.7675000,0.7675000,-0.0559780,0.0019053,-0.5567001,-0.0559780,-0.0420089,-0.1340702
0.7700000,0.7700000,0.7700000,-0.0548683,0.0018863,-0.5511606,-0.0548683,-0.0411446,-0.1314624
0.7725000,0.7725000,0.7725000,-0.0537842,0.0018675,-0.5456948,-0.0537842,-0.0403006,-0.1289137
0.7750000,0.7750000,0.7750000,-0.0527249,0.0018490,-0.5403013,-0.0527249,-0.0394762,-0.1264225
0.7775000,0.7775000,0.7775000,-0.0516899,0.0018308,-0.5349790,-0.0516899,-0.0386710,-0.1239873
0.7800000,0.7800000,0.7800000,-0.0506784,0.0018128,-0.5297267,-0.0506784,-0.0378845,-0.1216068
0.7825000,0.7825000,0.7825000,-0.0496900,0.0017950,-0.5245432,-0.0496900,-0.0371161,-0.1192795
0.7850000,0.7850000,0.7850000,-0.0487239,0.0017775,-0.5194275,-0.0487239,-0.0363655,-0.1170042
0.7875000,0.7875000,0.7875000,-0.0477797,0.0017603,-0.5143784,-0.0477797,-0.0356321,-0.1147794
0.7900000,0.7900000,0.7900000,-0.0468568,0.0017433,-0.5093948,-0.0468568,-0.0349155,-0.1126040
0.7925000,0.7925000,0.7925000,-0.0459545,0.0017265,-0.5044757,-0.0459545,-0.0342153,-0.1104766
0.7950000,0.7950000,0.7950000,-0.0450725,0.0017099,-0.4996200,-0.0450725,-0.0335310,-0.1083962
0.7975000,0.7975000,0.7975000,-0.0442101,0.0016936,-0.4948267,-0.0442101,-0.0328623,-0.1063615
0.8000000,0.8000000,0.8000000,-0.0433669,0.0016774,-0.4900948,-0.0433669,-0.0322087,-0.1043714
0.8025000,0.8025000,0.8025000,-0.0425425,0.0016615,-0.4854234,-0.0425425,-0.0315698,-0.1024248
0.8050000,0.8050000,0.8050000,-0.0417362,0.0016458,-0.4808114,-0.0417362,-0.0309454,-0.1005206
0.8075000,0.8075000,0.8075000,-0.0409477,0.0016303,-0.4762579,-0.0409477,-0.0303349,-0.0986578
0.8100000,0.8100000,0.8100000,-0.0401766,0.0016150,-0.4717620,-0.0401766,-0.0297382,-0.0968354
0.8125000,0.8125000,0.8125000,-0.0394223,0.0015999,-0.4673227,-0.0394223,-0.0291547,-0.0950523
0.8150000,0.8150000,0.8150000,-0.0386845,0.0015850,-0.4629393,-0.0386845,-0.0285842,-0.0933076
0.8175000,0.8175000,0.8175000,-0.0379628,0.0015703,-0.4586107,-0.0379628,-0.0280263,-0.0916003
0.8200000,0.8200000,0.8200000,-0.0372567,0.0015558,-0.4543362,-0.0372567,-0.0274808,-0.0899297
0.8225000,0.8225000,0.8225000,-0.0365659,0.0015415,-0.4501149,-0.0365659,-0.0269474,-0.0882946
0.8250000,0.8250000,0.8250000,-0.0358900,0.0015274,-0.4459459,-0.0358900,-0.0264256,-0.0866944
0.8275000,0.8275000,0.8275000,-0.0352287,0.0015134,-0.4418285,-0.0352287,-0.0259153,-0.0851282
0.8300000,0.8300000,0.8300000,-0.0345815,0.0014996,-0.4377619,-0.0345815,-0.0254162,-0.0835951
0.8325000,0.8325000,0.8325000,-0.0339482,0.0014860,-0.4337453,-0.0339482,-0.0249279,-0.0820943
0.8350000,0.8350000,0.8350000,-0.0333283,0.0014725,-0.4297779,-0.0333283,-0.0244503,-0.0806251
0.8375000,0.8375000,0.8375000,-0.0327217,0.0014592,-0.4258589,-0.0327217,-0.0239830,-0.0791867
0.8400000,0.8400000,0.8400000,-0.0321279,0.0014461,-0.4219876,-0.0321279,-0.0235258,-0.0777784
0.8425000,0.8425000,0.8425000,-0.0315466,0.0014332,-0.4181634,-0.0315466,-0.0230785,-0.0763995
0.8450000,0.8450000,0.8450000,-0.0309776,0.0014204,-0.4143854,-0.0309776,-0.0226407,-0.0750492
0.8475000,0.8475000,0.8475000,-0.0304205,0.0014078,-0.4106530,-0.0304205,-0.0222124,-0.0737270
0.8500000,0.8500000,0.8500000,-0.0298751,0.0013953,-0.4069655,-0.0298751,-0.0217932,-0.0724320
0.8525000,0.8525000,0.8525000,-0.0293411,0.0013829,-0.4033222,-0.0293411,-0.0213830,-0.0711638
0.8550000,0.8550000,0.8550000,-0.0288182,0.0013708,-0.3997224,-0.0288182,-0.0209815,-0.0699216
0.8575000,0.8575000,0.8575000,-0.0283061,0.0013587,-0.3961656,-0.0283061,-0.0205884,-0.0687049
0.8600000,0.8600000,0.8600000,-0.0278047,0.0013468,-0.3926510,-0.0278047,-0.0202037,-0.0675130
0.8625000,0.8625000,0.8625000,-0.0273136,0.0013351,-0.3891780,-0.0273136,-0.0198271,-0.0663454
0.8650000,0.8650000,0.8650000,-0.0268326,0.0013235,-0.3857461,-0.0268326,-0.0194585,-0.0652016
0.8675000,0.8675000,0.8675000,-0.0263614,0.0013120,-0.3823545,-0.0263614,-0.0190975,-0.0640809
0.8700000,0.8700000,0.8700000,-0.0258999,0.0013007,-0.3790028,-0.0258999,-0.0187441,-0.0629828
0.8725000,0.8725000,0.8725000,-0.0254478,0.0012895,-0.3756904,-0.0254478,-0.0183981,-0.0619069
0.8750000,0.8750000,0.8750000,-0.0250049,0.0012784,-0.3724165,-0.0250049,-0.0180592,-0.0608525
0.8775000,0.8775000,0.8775000,-0.0245710,0.0012675,-0.3691808,-0.0245710,-0.0177274,-0.0598193
0.8800000,0.8800000,0.8800000,-0.0241458,0.0012567,-0.3659826,-0.0241458,-0.0174025,-0.0588067
0.8825000,0.8825000,0.8825000,-0.0237292,0.0012460,-0.3628214,-0.0237292,-0.0170842,-0.0578142
0.8850000,0.8850000,0.8850000,-0.0233210,0.0012354,-0.3596967,-0.0233210,-0.0167726,-0.0568415
0.8875000,0.8875000,0.8875000,-0.0229210,0.0012250,-0.3566078,-0.0229210,-0.0164673,-0.0558880
0.8900000,0.8900000,0.8900000,-0.0225290,0.0012147,-0.3535545,-0.0225290,-0.0161682,-0.0549534
0.8925000,0.8925000,0.8925000,-0.0221447,0.0012045,-0.3505360,-0.0221447,-0.0158753,-0.0540371
0.8950000,0.8950000,0.8950000,-0.0217682,0.0011944,-0.3475519,-0.0217682,-0.0155883,-0.0531388
0.8975000,0.8975000,0.8975000,-0.0213990,0.0011844,-0.3446017,-0.0213990,-0.0153071,-0.0522581
0.9000000,0.9000000,0.9000000,-0.0210372,0.0011746,-0.3416850,-0.0210372,-0.0150317,-0.0513946
0.9025000,0.9025000,0.9025000,-0.0206825,0.0011648,-0.3388012,-0.0206825,-0.0147618,-0.0505478
0.9050000,0.9050000,0.9050000,-0.0203348,0.0011552,-0.3359500,-0.0203348,-0.0144973,-0.0497176
0.9075000,0.9075000,0.9075000,-0.0199938,0.0011457,-0.3331307,-0.0199938,-0.0142382,-0.0489033
0.9100000,0.9100000,0.9100000,-0.0196596,0.0011363,-0.3303431,-0.0196596,-0.0139842,-0.0481048
0.9125000,0.9125000,0.9125000,-0.0193318,0.0011269,-0.3275866,-0.0193318,-0.0137353,-0.0473217
0.9150000,0.9150000,0.9150000,-0.0190104,0.0011177,-0.3248608,-0.0190104,-0.0134914,-0.0465536
0.9175000,0.9175000,0.9175000,-0.0186953,0.0011086,-0.3221653,-0.0186953,-0.0132523,-0.0458001
0.9200000,0.9200000,0.9200000,-0.0183862,0.0010996,-0.3194996,-0.0183862,-0.0130180,-0.0450611
0.9225000,0.9225000,0.9225000,-0.0180831,0.0010907,-0.3168634,-0.0180831,-0.0127883,-0.0443361
0.9250000,0.9250000,0.9250000,-0.0177858,0.0010819,-0.3142563,-0.0177858,-0.0125632,-0.0436249
0.9275000,0.9275000,0.9275000,-0.0174942,0.0010732,-0.3116777,-0.0174942,-0.0123425,-0.0429271
0.9300000,0.9300000,0.9300000,-0.0172082,0.0010646,-0.3091274,-0.0172082,-0.0121261,-0.0422425
0.9325000,0.9325000,0.9325000,-0.0169276,0.0010560,-0.3066050,-0.0169276,-0.0119139,-0.0415707
0.9350000,0.9350000,0.9350000,-0.0166524,0.0010476,-0.3041101,-0.0166524,-0.0117059,-0.0409116
0.9375000,0.9375000,0.9375000,-0.0163824,0.0010393,-0.3016422,-0.0163824,-0.0115020,-0.0402648
0.9400000,0.9400000,0.9400000,-0.0161175,0.0010310,-0.2992011,-0.0161175,-0.0113020,-0.0396301
0.9425000,0.9425000,0.9425000,-0.0158575,0.0010228,-0.2967864,-0.0158575,-0.0111059,-0.0390072
0.9450000,0.9450000,0.9450000,-0.0156025,0.0010148,-0.2943977,-0.0156025,-0.0109136,-0.0383958
0.9475000,0.9475000,0.9475000,-0.0153523,0.0010068,-0.2920346,-0.0153523,-0.0107250,-0.0377958
0.9500000,0.9500000,0.9500000,-0.0151067,0.0009989,-0.2896969,-0.0151067,-0.0105401,-0.0372069
0.9525000,0.9525000,0.9525000,-0.0148657,0.0009910,-0.2873842,-0.0148657,-0.0103586,-0.0366287
0.9550000,0.9550000,0.9550000,-0.0146292,0.0009833,-0.2850961,-0.0146292,-0.0101807,-0.0360612
0.9575000,0.9575000,0.9575000,-0.0143970,0.0009756,-0.2828323,-0.0143970,-0.0100062,-0.0355041
0.9600000,0.9600000,0.9600000,-0.0141692,0.0009681,-0.2805925,-0.0141692,-0.0098350,-0.0349572
0.9625000,0.9625000,0.9625000,-0.0139456,0.0009606,-0.2783764,-0.0139456,-0.0096670,-0.0344202
0.9650000,0.9650000,0.9650000,-0.0137260,0.0009531,-0.2761836,-0.0137260,-0.0095023,-0.0338929
0.9675000,0.9675000,0.9675000,-0.0135106,0.0009458,-0.2740140,-0.0135106,-0.0093406,-0.0333752
0.9700000,0.9700000,0.9700000,-0.0132990,0.0009385,-0.2718670,-0.0132990,-0.0091820,-0.0328669
0.9725000,0.9725000,0.9725000,-0.0130913,0.0009313,-0.2697425,-0.0130913,-0.0090264,-0.0323677
0.9750000,0.9750000,0.9750000,-0.0128874,0.0009242,-0.2676402,-0.0128874,-0.0088737,-0.0318775
0.9775000,0.9775000,0.9775000,-0.0126872,0.0009172,-0.2655598,-0.0126872,-0.0087239,-0.0313961
0.9800000,0.9800000,0.9800000,-0.0124907,0.0009102,-0.2635009,-0.0124907,-0.0085769,-0.0309232
0.9825000,0.9825000,0.9825000,-0.0122976,0.0009033,-0.2614634,-0.0122976,-0.0084327,-0.0304588
0.9850000,0.9850000,0.9850000,-0.0121081,0.0008965,-0.2594468,-0.0121081,-0.0082911,-0.0300027
0.9875000,0.9875000,0.9875000,-0.0119219,0.0008897,-0.2574511,-0.0119219,-0.0081521,-0.0295546
0.9900000,0.9900000,0.9900000,-0.0117391,0.0008830,-0.2554758,-0.0117391,-0.0080157,-0.0291144
0.9925000,0.9925000,0.9925000,-0.0115596,0.0008764,-0.2535208,-0.0115596,-0.0078819,-0.0286820
0.9950000,0.9950000,0.9950000,-0.0113833,0.0008698,-0.2515857,-0.0113833,-0.0077505,-0.0282573
0.9975000,0.9975000,0.9975000,-0.0112101,0.0008633,-0.2496703,-0.0112101,-0.0076216,-0.0278399
1.0000000,1.0000000,1.0000000,-0.0110400,0.0008569,-0.2477744,-0.0110400,-0.0074950,-0.0274299
1.0025000,1.0025000,1.0025000,-0.0108728,0.0008505,-0.2458977,-0.0108728,-0.0073707,-0.0270270
1.0050000,1.0050000,1.0050000,-0.0107087,0.0008442,-0.2440400,-0.0107087,-0.0072487,-0.0266311
1.0075000,1.0075000,1.0075000,-0.0105474,0.0008380,-0.2422010,-0.0105474,-0.0071289,-0.0262421
1.0100000,1.0100000,1.0100000,-0.0103890,0.0008318,-0.2403806,-0.0103890,-0.0070113,-0.0258599
1.0125000,1.0125000,1.0125000,-0.0102333,0.0008257,-0.2385783,-0.0102333,-0.0068959,-0.0254842
1.0150000,1.0150000,1.0150000,-0.0100803,0.0008197,-0.2367942,-0.0100803,-0.0067825,-0.0251150
1.0175000,1.0175000,1.0175000,-0.0099301,0.0008137,-0.2350278,-0.0099301,-0.0066712,-0.0247521
1.0200000,1.0200000,1.0200000,-0.0097824,0.0008077,-0.2332790,-0.0097824,-0.0065619,-0.0243955
1.0225000,1.0225000,1.0225000,-0.0096373,0.0008019,-0.2315476,-0.0096373,-0.0064545,-0.0240450
1.0250000,1.0250000,1.0250000,-0.0094947,0.0007960,-0.2298333,-0.0094947,-0.0063491,-0.0237004
1.0275000,1.0275000,1.0275000,-0.0093545,0.0007903,-0.2281359,-0.0093545,-0.0062456,-0.0233617
1.0300000,1.0300000,1.0300000,-0.0092168,0.0007846,-0.2264553,-0.0092168,-0.0061439,-0.0230287
1.0325000,1.0325000,1.0325000,-0.0090815,0.0007789,-0.2247913,-0.0090815,-0.0060441,-0.0227013
1.0350000,1.0350000,1.0350000,-0.0089484,0.0007733,-0.2231435,-0.0089484,-0.0059460,-0.0223795
1.0375000,1.0375000,1.0375000,-0.0088176,0.0007678,-0.2215118,-0.0088176,-0.0058497,-0.0220631
1.0400000,1.0400000,1.0400000,-0.0086891,0.0007623,-0.2198961,-0.0086891,-0.0057550,-0.0217520
1.0425000,1.0425000,1.0425000,-0.0085627,0.0007568,-0.2182961,-0.0085627,-0.0056621,-0.0214461
1.0450000,1.0450000,1.0450000,-0.0084385,0.0007514,-0.2167117,-0.0084385,-0.0055708,-0.0211454
1.0475000,1.0475000,1.0475000,-0.0083164,0.0007461,-0.2151426,-0.0083164,-0.0054811,-0.0208496
1.0500000,1.0500000,1.0500000,-0.0081964,0.0007408,-0.2135886,-0.0081964,-0.0053930,-0.0205587
1.0525000,1.0525000,1.0525000,-0.0080783,0.0007356,-0.2120496,-0.0080783,-0.0053064,-0.0202727
1.0550000,1.0550000,1.0550000,-0.0079623,0.0007304,-0.2105255,-0.0079623,-0.0052213,-0.0199914
1.0575000,1.0575000,1.0575000,-0.0078482,0.0007253,-0.2090159,-0.0078482,-0.0051377,-0.0197147
1.0600000,1.0600000,1.0600000,-0.0077360,0.0007202,-0.2075208,-0.0077360,-0.0050556,-0.0194426
1.0625000,1.0625000,1.0625000,-0.0076256,0.0007151,-0.2060400,-0.0076256,-0.0049749,-0.0191749
1.0650000,1.0650000,1.0650000,-0.0075171,0.0007101,-0.2045732,-0.0075171,-0.0048956,-0.0189116
1.0675000,1.0675000,1.0675000,-0.0074105,0.0007052,-0.2031204,-0.0074105,-0.0048177,-0.0186527
1.0700000,1.0700000,1.0700000,-0.0073055,0.0007003,-0.2016814,-0.0073055,-0.0047412,-0.0183979
1.0725000,1.0725000,1.0725000,-0.0072023,0.0006954,-0.2002560,-0.0072023,-0.0046659,-0.0181473
1.0750000,1.0750000,1.0750000,-0.0071008,0.0006906,-0.1988440,-0.0071008,-0.0045920,-0.0179007
1.0775000,1.0775000,1.0775000,-0.0070010,0.0006859,-0.1974453,-0.0070010,-0.0045193,-0.0176581
1.0800000,1.0800000,1.0800000,-0.0069028,0.0006812,-0.1960597,-0.0069028,-0.0044479,-0.0174195
1.0825000,1.0825000,1.0825000,-0.0068062,0.0006765,-0.1946871,-0.0068062,-0.0043777,-0.0171846
1.0850000,1.0850000,1.0850000,-0.0067112,0.0006718,-0.1933273,-0.0067112,-0.0043086,-0.0169536
1.0875000,1.0875000,1.0875000,-0.0066178,0.0006672,-0.1919802,-0.0066178,-0.0042408,-0.0167262
1.0900000,1.0900000,1.0900000,-0.0065258,0.0006627,-0.1906457,-0.0065258,-0.0041741,-0.0165025
1.0925000,1.0925000,1.0925000,-0.0064354,0.0006582,-0.1893235,-0.0064354,-0.0041086,-0.0162823
1.0950000,1.0950000,1.0950000,-0.0063464,0.0006537,-0.1880135,-0.0063464,-0.0040442,-0.0160656
1.0975000,1.0975000,1.0975000,-0.0062588,0.0006493,-0.1867156,-0.0062588,-0.0039808,-0.0158524
1.1000000,1.1000000,1.1000000,-0.0061727,0.0006449,-0.1854297,-0.0061727,-0.0039185,-0.0156425
1.1025000,1.1025000,1.1025000,-0.0060879,0.0006406,-0.1841556,-0.0060879,-0.0038573,-0.0154360
1.1050000,1.1050000,1.1050000,-0.0060045,0.0006362,-0.1828932,-0.0060045,-0.0037971,-0.0152326
1.1075000,1.1075000,1.1075000,-0.0059224,0.0006320,-0.1816423,-0.0059224,-0.0037379,-0.0150325
1.1100000,1.1100000,1.1100000,-0.0058416,0.0006277,-0.1804029,-0.0058416,-0.0036797,-0.0148355
1.1125000,1.1125000,1.1125000,-0.0057622,0.0006235,-0.1791747,-0.0057622,-0.0036225,-0.0146416
1.1150000,1.1150000,1.1150000,-0.0056839,0.0006194,-0.1779577,-0.0056839,-0.0035663,-0.0144507
1.1175000,1.1175000,1.1175000,-0.0056069,0.0006153,-0.1767517,-0.0056069,-0.0035109,-0.0142628
1.1200000,1.1200000,1.1200000,-0.0055312,0.0006112,-0.1755566,-0.0055312,-0.0034565,-0.0140778
1.1225000,1.1225000,1.1225000,-0.0054566,0.0006071,-0.1743723,-0.0054566,-0.0034030,-0.0138957
1.1250000,1.1250000,1.1250000,-0.0053832,0.0006031,-0.1731987,-0.0053832,-0.0033504,-0.0137163
1.1275000,1.1275000,1.1275000,-0.0053110,0.0005992,-0.1720356,-0.0053110,-0.0032987,-0.0135398
1.1300000,1.1300000,1.1300000,-0.0052398,0.0005952,-0.1708829,-0.0052398,-0.0032478,-0.0133659
1.1325000,1.1325000,1.1325000,-0.0051698,0.0005913,-0.1697405,-0.0051698,-0.0031977,-0.0131947
1.1350000,1.1350000,1.1350000,-0.0051009,0.0005874,-0.1686084,-0.0051009,-0.0031485,-0.0130261
1.1375000,1.1375000,1.1375000,-0.0050331,0.0005836,-0.1674862,-0.0050331,-0.0031000,-0.0128601
1.1400000,1.1400000,1.1400000,-0.0049663,0.0005798,-0.1663741,-0.0049663,-0.0030524,-0.0126966
1.1425000,1.1425000,1.1425000,-0.0049005,0.0005760,-0.1652718,-0.0049005,-0.0030056,-0.0125356
1.1450000,1.1450000,1.1450000,-0.0048358,0.0005723,-0.1641793,-0.0048358,-0.0029595,-0.0123771
1.1475000,1.1475000,1.1475000,-0.0047720,0.0005686,-0.1630963,-0.0047720,-0.0029141,-0.0122209
1.1500000,1.1500000,1.1500000,-0.0047093,0.0005649,-0.1620230,-0.0047093,-0.0028695,-0.0120671
1.1525000,1.1525000,1.1525000,-0.0046474,0.0005613,-0.1609590,-0.0046474,-0.0028257,-0.0119156
1.1550000,1.1550000,1.1550000,-0.0045866,0.0005576,-0.1599043,-0.0045866,-0.0027825,-0.0117664
1.1575000,1.1575000,1.1575000,-0.0045267,0.0005541,-0.1588589,-0.0045267,-0.0027400,-0.0116194
1.1600000,1.1600000,1.1600000,-0.0044676,0.0005505,-0.1578226,-0.0044676,-0.0026983,-0.0114746
1.1625000,1.1625000,1.1625000,-0.0044095,0.0005470,-0.1567953,-0.0044095,-0.0026572,-0.0113319
1.1650000,1.1650000,1.1650000,-0.0043523,0.0005435,-0.1557770,-0.0043523,-0.0026167,-0.0111914
1.1675000,1.1675000,1.1675000,-0.0042959,0.0005400,-0.1547674,-0.0042959,-0.0025769,-0.0110530
1.1700000,1.1700000,1.1700000,-0.0042404,0.0005366,-0.1537666,-0.0042404,-0.0025378,-0.0109166
1.1725000,1.1725000,1.1725000,-0.0041857,0.0005332,-0.1527744,-0.0041857,-0.0024992,-0.0107822
1.1750000,1.1750000,1.1750000,-0.0041319,0.0005298,-0.1517908,-0.0041319,-0.0024613,-0.0106498
1.1775000,1.1775000,1.1775000,-0.0040788,0.0005265,-0.1508156,-0.0040788,-0.0024240,-0.0105194
1.1800000,1.1800000,1.1800000,-0.0040265,0.0005232,-0.1498488,-0.0040265,-0.0023873,-0.0103908
1.1825000,1.1825000,1.1825000,-0.0039751,0.0005199,-0.1488902,-0.0039751,-0.0023512,-0.0102642
1.1850000,1.1850000,1.1850000,-0.0039244,0.0005166,-0.1479398,-0.0039244,-0.0023156,-0.0101394
1.1875000,1.1875000,1.1875000,-0.0038744,0.0005134,-0.1469976,-0.0038744,-0.0022806,-0.0100164
1.1900000,1.1900000,1.1900000,-0.0038252,0.0005102,-0.1460633,-0.0038252,-0.0022462,-0.0098952
1.1925000,1.1925000,1.1925000,-0.0037767,0.0005070,-0.1451369,-0.0037767,-0.0022123,-0.0097757
1.1950000,1.1950000,1.1950000,-0.0037289,0.0005039,-0.1442184,-0.0037289,-0.0021789,-0.0096580
1.1975000,1.1975000,1.1975000,-0.0036819,0.0005007,-0.1433076,-0.0036819,-0.0021461,-0.0095420
1.2000000,1.2000000,1.2000000,-0.0036355,0.0004976,-0.1424045,-0.0036355,-0.0021138,-0.0094276
1.2025000,1.2025000,1.2025000,-0.0035898,0.0004946,-0.1415090,-0.0035898,-0.0020819,-0.0093149
1.2050000,1.2050000,1.2050000,-0.0035448,0.0004915,-0.1406210,-0.0035448,-0.0020506,-0.0092038
1.2075000,1.2075000,1.2075000,-0.0035004,0.0004885,-0.1397405,-0.0035004,-0.0020198,-0.0090943
1.2100000,1.2100000,1.2100000,-0.0034567,0.0004855,-0.1388672,-0.0034567,-0.0019895,-0.0089863
1.2125000,1.2125000,1.2125000,-0.0034137,0.0004825,-0.1380013,-0.0034137,-0.0019596,-0.0088799
1.2150000,1.2150000,1.2150000,-0.0033712,0.0004796,-0.1371426,-0.0033712,-0.0019302,-0.0087750
1.2175000,1.2175000,1.2175000,-0.0033294,0.0004766,-0.1362910,-0.0033294,-0.0019012,-0.0086716
1.2200000,1.2200000,1.2200000,-0.0032881,0.0004737,-0.1354465,-0.0032881,-0.0018727,-0.0085697
1.2225000,1.2225000,1.2225000,-0.0032475,0.0004708,-0.1346089,-0.0032475,-0.0018447,-0.0084692
1.2250000,1.2250000,1.2250000,-0.0032075,0.0004680,-0.1337782,-0.0032075,-0.0018171,-0.0083701
1.2275000,1.2275000,1.2275000,-0.0031680,0.0004652,-0.1329544,-0.0031680,-0.0017899,-0.0082724
1.2300000,1.2300000,1.2300000,-0.0031291,0.0004623,-0.1321374,-0.0031291,-0.0017631,-0.0081760
1.2325000,1.2325000,1.2325000,-0.0030907,0.0004596,-0.1313270,-0.0030907,-0.0017367,-0.0080810
1.2350000,1.2350000,1.2350000,-0.0030529,0.0004568,-0.1305233,-0.0030529,-0.0017107,-0.0079874
1.2375000,1.2375000,1.2375000,-0.0030157,0.0004540,-0.1297261,-0.0030157,-0.0016852,-0.0078950
1.2400000,1.2400000,1.2400000,-0.0029789,0.0004513,-0.1289355,-0.0029789,-0.0016600,-0.0078039
1.2425000,1.2425000,1.2425000,-0.0029427,0.0004486,-0.1281512,-0.0029427,-0.0016352,-0.0077141
1.2450000,1.2450000,1.2450000,-0.0029070,0.0004459,-0.1273733,-0.0029070,-0.0016108,-0.0076256
1.2475000,1.2475000,1.2475000,-0.0028718,0.0004433,-0.1266018,-0.0028718,-0.0015868,-0.0075382
1.2500000,1.2500000,1.2500000,-0.0028371,0.0004406,-0.1258364,-0.0028371,-0.0015631,-0.0074521
1.2525000,1.2525000,1.2525000,-0.0028029,0.0004380,-0.1250772,-0.0028029,-0.0015398,-0.0073671
1.2550000,1.2550000,1.2550000,-0.0027692,0.0004354,-0.1243242,-0.0027692,-0.0015169,-0.0072833
1.2575000,1.2575000,1.2575000,-0.0027360,0.0004329,-0.1235772,-0.0027360,-0.0014942,-0.0072006
1.2600000,1.2600000,1.2600000,-0.0027032,0.0004303,-0.1228361,-0.0027032,-0.0014720,-0.0071191
1.2625000,1.2625000,1.2625000,-0.0026708,0.0004278,-0.1221010,-0.0026708,-0.0014501,-0.0070387
1.2650000,1.2650000,1.2650000,-0.0026390,0.0004253,-0.1213718,-0.0026390,-0.0014285,-0.0069594
1.2675000,1.2675000,1.2675000,-0.0026075,0.0004228,-0.1206484,-0.0026075,-0.0014072,-0.0068812
1.2700000,1.2700000,1.2700000,-0.0025765,0.0004203,-0.1199307,-0.0025765,-0.0013862,-0.0068040
1.2725000,1.2725000,1.2725000,-0.0025460,0.0004178,-0.1192187,-0.0025460,-0.0013656,-0.0067278
1.2750000,1.2750000,1.2750000,-0.0025158,0.0004154,-0.1185124,-0.0025158,-0.0013453,-0.0066527
1.2775000,1.2775000,1.2775000,-0.0024861,0.0004130,-0.1178116,-0.0024861,-0.0013252,-0.0065786
1.2800000,1.2800000,1.2800000,-0.0024568,0.0004106,-0.1171164,-0.0024568,-0.0013055,-0.0065055
1.2825000,1.2825000,1.2825000,-0.0024279,0.0004082,-0.1164266,-0.0024279,-0.0012861,-0.0064334
1.2850000,1.2850000,1.2850000,-0.0023993,0.0004058,-0.1157422,-0.0023993,-0.0012670,-0.0063622
1.2875000,1.2875000,1.2875000,-0.0023712,0.0004035,-0.1150633,-0.0023712,-0.0012481,-0.0062920
1.2900000,1.2900000,1.2900000,-0.0023435,0.0004012,-0.1143896,-0.0023435,-0.0012295,-0.0062227
1.2925000,1.2925000,1.2925000,-0.0023161,0.0003989,-0.1137212,-0.0023161,-0.0012112,-0.0061543
1.2950000,1.2950000,1.2950000,-0.0022891,0.0003966,-0.1130580,-0.0022891,-0.0011932,-0.0060869
1.2975000,1.2975000,1.2975000,-0.0022625,0.0003943,-0.1123999,-0.0022625,-0.0011755,-0.0060203
1.3000000,1.3000000,1.3000000,-0.0022362,0.0003920,-0.1117470,-0.0022362,-0.0011580,-0.0059546
1.3025000,1.3025000,1.3025000,-0.0022103,0.0003898,-0.1110991,-0.0022103,-0.0011407,-0.0058898
1.3050000,1.3050000,1.3050000,-0.0021848,0.0003876,-0.1104563,-0.0021848,-0.0011237,-0.0058258
1.3075000,1.3075000,1.3075000,-0.0021595,0.0003854,-0.1098184,-0.0021595,-0.0011070,-0.0057627
1.3100000,1.3100000,1.3100000,-0.0021347,0.0003832,-0.1091854,-0.0021347,-0.0010905,-0.0057004
1.3125000,1.3125000,1.3125000,-0.0021101,0.0003810,-0.1085572,-0.0021101,-0.0010743,-0.0056389
1.3150000,1.3150000,1.3150000,-0.0020859,0.0003789,-0.1079339,-0.0020859,-0.0010583,-0.0055782
1.3175000,1.3175000,1.3175000,-0.0020620,0.0003767,-0.1073154,-0.0020620,-0.0010425,-0.0055183
1.3200000,1.3200000,1.3200000,-0.0020385,0.0003746,-0.1067016,-0.0020385,-0.0010270,-0.0054591
1.3225000,1.3225000,1.3225000,-0.0020152,0.0003725,-0.1060925,-0.0020152,-0.0010117,-0.0054008
1.3250000,1.3250000,1.3250000,-0.0019923,0.0003704,-0.1054880,-0.0019923,-0.0009966,-0.0053432
1.3275000,1.3275000,1.3275000,-0.0019696,0.0003683,-0.1048881,-0.0019696,-0.0009817,-0.0052863
1.3300000,1.3300000,1.3300000,-0.0019473,0.0003663,-0.1042927,-0.0019473,-0.0009671,-0.0052302
1.3325000,1.3325000,1.3325000,-0.0019252,0.0003642,-0.1037019,-0.0019252,-0.0009526,-0.0051747
1.3350000,1.3350000,1.3350000,-0.0019035,0.0003622,-0.1031155,-0.0019035,-0.0009384,-0.0051200
1.3375000,1.3375000,1.3375000,-0.0018820,0.0003602,-0.1025336,-0.0018820,-0.0009244,-0.0050660
1.3400000,1.3400000,1.3400000,-0.0018608,0.0003582,-0.1019560,-0.0018608,-0.0009106,-0.0050127
1.3425000,1.3425000,1.3425000,-0.0018399,0.0003562,-0.1013828,-0.0018399,-0.0008969,-0.0049601
1.3450000,1.3450000,1.3450000,-0.0018193,0.0003542,-0.1008138,-0.0018193,-0.0008835,-0.0049081
1.3475000,1.3475000,1.3475000,-0.0017989,0.0003523,-0.1002492,-0.0017989,-0.0008703,-0.0048568
1.3500000,1.3500000,1.3500000,-0.0017788,0.0003503,-0.0996887,-0.0017788,-0.0008573,-0.0048061
1.3525000,1.3525000,1.3525000,-0.0017590,0.0003484,-0.0991324,-0.0017590,-0.0008444,-0.0047561
1.3550000,1.3550000,1.3550000,-0.0017394,0.0003465,-0.0985803,-0.0017394,-0.0008318,-0.0047067
1.3575000,1.3575000,1.3575000,-0.0017201,0.0003446,-0.0980322,-0.0017201,-0.0008193,-0.0046580
1.3600000,1.3600000,1.3600000,-0.0017010,0.0003427,-0.0974883,-0.0017010,-0.0008070,-0.0046098
1.3625000,1.3625000,1.3625000,-0.0016822,0.0003408,-0.0969483,-0.0016822,-0.0007948,-0.0045622
1.3650000,1.3650000,1.3650000,-0.0016636,0.0003390,-0.0964123,-0.0016636,-0.0007829,-0.0045153
1.3675000,1.3675000,1.3675000,-0.0016453,0.0003371,-0.0958803,-0.0016453,-0.0007711,-0.0044689
1.3700000,1.3700000,1.3700000,-0.0016272,0.0003353,-0.0953522,-0.0016272,-0.0007595,-0.0044231
1.3725000,1.3725000,1.3725000,-0.0016093,0.0003335,-0.0948280,-0.0016093,-0.0007481,-0.0043779
1.3750000,1.3750000,1.3750000,-0.0015916,0.0003317,-0.0943076,-0.0015916,-0.0007368,-0.0043332
1.3775000,1.3775000,1.3775000,-0.0015742,0.0003299,-0.0937911,-0.0015742,-0.0007257,-0.0042891
1.3800000,1.3800000,1.3800000,-0.0015570,0.0003281,-0.0932783,-0.0015570,-0.0007147,-0.0042455
1.3825000,1.3825000,1.3825000,-0.0015400,0.0003264,-0.0927692,-0.0015400,-0.0007039,-0.0042025
1.3850000,1.3850000,1.3850000,-0.0015233,0.0003246,-0.0922639,-0.0015233,-0.0006932,-0.0041600
1.3875000,1.3875000,1.3875000,-0.0015067,0.0003229,-0.0917622,-0.0015067,-0.0006827,-0.0041180
1.3900000,1.3900000,1.3900000,-0.0014904,0.0003211,-0.0912642,-0.0014904,-0.0006724,-0.0040766
1.3925000,1.3925000,1.3925000,-0.0014742,0.0003194,-0.0907697,-0.0014742,-0.0006622,-0.0040356
1.3950000,1.3950000,1.3950000,-0.0014583,0.0003177,-0.0902788,-0.0014583,-0.0006521,-0.0039951
1.3975000,1.3975000,1.3975000,-0.0014426,0.0003160,-0.0897915,-0.0014426,-0.0006422,-0.0039552
1.4000000,1.4000000,1.4000000,-0.0014271,0.0003143,-0.0893077,-0.0014271,-0.0006324,-0.0039157
1.4025000,1.4025000,1.4025000,-0.0014117,0.0003127,-0.0888274,-0.0014117,-0.0006228,-0.0038767
1.4050000,1.4050000,1.4050000,-0.0013966,0.0003110,-0.0883505,-0.0013966,-0.0006133,-0.0038382
1.4075000,1.4075000,1.4075000,-0.0013816,0.0003094,-0.0878770,-0.0013816,-0.0006039,-0.0038001
1.4100000,1.4100000,1.4100000,-0.0013668,0.0003077,-0.0874069,-0.0013668,-0.0005946,-0.0037625
1.4125000,1.4125000,1.4125000,-0.0013523,0.0003061,-0.0869401,-0.0013523,-0.0005855,-0.0037253
1.4150000,1.4150000,1.4150000,-0.0013379,0.0003045,-0.0864767,-0.0013379,-0.0005766,-0.0036886
1.4175000,1.4175000,1.4175000,-0.0013236,0.0003029,-0.0860166,-0.0013236,-0.0005677,-0.0036524
1.4200000,1.4200000,1.4200000,-0.0013096,0.0003013,-0.0855597,-0.0013096,-0.0005590,-0.0036165
1.4225000,1.4225000,1.4225000,-0.0012957,0.0002997,-0.0851061,-0.0012957,-0.0005503,-0.0035811
1.4250000,1.4250000,1.4250000,-0.0012820,0.0002982,-0.0846557,-0.0012820,-0.0005419,-0.0035461
1.4275000,1.4275000,1.4275000,-0.0012685,0.0002966,-0.0842084,-0.0012685,-0.0005335,-0.0035116
1.4300000,1.4300000,1.4300000,-0.0012551,0.0002951,-0.0837643,-0.0012551,-0.0005252,-0.0034774
1.4325000,1.4325000,1.4325000,-0.0012419,0.0002936,-0.0833234,-0.0012419,-0.0005171,-0.0034437
1.4350000,1.4350000,1.4350000,-0.0012289,0.0002920,-0.0828855,-0.0012289,-0.0005091,-0.0034103
1.4375000,1.4375000,1.4375000,-0.0012160,0.0002905,-0.0824507,-0.0012160,-0.0005011,-0.0033774
1.4400000,1.4400000,1.4400000,-0.0012033,0.0002890,-0.0820189,-0.0012033,-0.0004933,-0.0033448
1.4425000,1.4425000,1.4425000,-0.0011907,0.0002875,-0.0815902,-0.0011907,-0.0004856,-0.0033126
1.4450000,1.4450000,1.4450000,-0.0011783,0.0002860,-0.0811644,-0.0011783,-0.0004781,-0.0032808
1.4475000,1.4475000,1.4475000,-0.0011660,0.0002846,-0.0807416,-0.0011660,-0.0004706,-0.0032493
1.4500000,1.4500000,1.4500000,-0.0011539,0.0002831,-0.0803218,-0.0011539,-0.0004632,-0.0032183
1.4525000,1.4525000,1.4525000,-0.0011419,0.0002817,-0.0799048,-0.0011419,-0.0004559,-0.0031876
1.4550000,1.4550000,1.4550000,-0.0011301,0.0002802,-0.0794907,-0.0011301,-0.0004487,-0.0031572
1.4575000,1.4575000,1.4575000,-0.0011184,0.0002788,-0.0790795,-0.0011184,-0.0004416,-0.0031272
1.4600000,1.4600000,1.4600000,-0.0011069,0.0002774,-0.0786712,-0.0011069,-0.0004347,-0.0030976
1.4625000,1.4625000,1.4625000,-0.0010955,0.0002760,-0.0782656,-0.0010955,-0.0004278,-0.0030683
1.4650000,1.4650000,1.4650000,-0.0010842,0.0002746,-0.0778628,-0.0010842,-0.0004210,-0.0030393
1.4675000,1.4675000,1.4675000,-0.0010731,0.0002732,-0.0774628,-0.0010731,-0.0004143,-0.0030107
1.4700000,1.4700000,1.4700000,-0.0010621,0.0002718,-0.0770656,-0.0010621,-0.0004077,-0.0029824
1.4725000,1.4725000,1.4725000,-0.0010512,0.0002704,-0.0766710,-0.0010512,-0.0004012,-0.0029544
1.4750000,1.4750000,1.4750000,-0.0010405,0.0002690,-0.0762792,-0.0010405,-0.0003947,-0.0029267
1.4775000,1.4775000,1.4775000,-0.0010299,0.0002677,-0.0758900,-0.0010299,-0.0003884,-0.0028994
1.4800000,1.4800000,1.4800000,-0.0010194,0.0002663,-0.0755035,-0.0010194,-0.0003822,-0.0028723
1.4825000,1.4825000,1.4825000,-0.0010090,0.0002650,-0.0751195,-0.0010090,-0.0003760,-0.0028456
1.4850000,1.4850000,1.4850000,-0.0009988,0.0002637,-0.0747382,-0.0009988,-0.0003699,-0.0028192
1.4875000,1.4875000,1.4875000,-0.0009887,0.0002624,-0.0743595,-0.0009887,-0.0003639,-0.0027931
1.4900000,1.4900000,1.4900000,-0.0009787,0.0002610,-0.0739833,-0.0009787,-0.0003580,-0.0027673
1.4925000,1.4925000,1.4925000,-0.0009688,0.0002597,-0.0736097,-0.0009688,-0.0003522,-0.0027417
1.4950000,1.4950000,1.4950000,-0.0009591,0.0002584,-0.0732386,-0.0009591,-0.0003464,-0.0027165
1.4975000,1.4975000,1.4975000,-0.0009494,0.0002572,-0.0728700,-0.0009494,-0.0003407,-0.0026915
1.5000000,1.5000000,1.5000000,-0.0009399,0.0002559,-0.0725038,-0.0009399,-0.0003351,-0.0026669
1.5025000,1.5025000,1.5025000,-0.0009305,0.0002546,-0.0721401,-0.0009305,-0.0003296,-0.0026425
1.5050000,1.5050000,1.5050000,-0.0009212,0.0002534,-0.0717789,-0.0009212,-0.0003242,-0.0026183
1.5075000,1.5075000,1.5075000,-0.0009120,0.0002521,-0.0714200,-0.0009120,-0.0003188,-0.0025945
1.5100000,1.5100000,1.5100000,-0.0009029,0.0002509,-0.0710636,-0.0009029,-0.0003135,-0.0025709
1.5125000,1.5125000,1.5125000,-0.0008939,0.0002496,-0.0707095,-0.0008939,-0.0003083,-0.0025476
1.5150000,1.5150000,1.5150000,-0.0008850,0.0002484,-0.0703577,-0.0008850,-0.0003031,-0.0025245
1.5175000,1.5175000,1.5175000,-0.0008762,0.0002472,-0.0700083,-0.0008762,-0.0002980,-0.0025017
1.5200000,1.5200000,1.5200000,-0.0008675,0.0002460,-0.0696613,-0.0008675,-0.0002930,-0.0024791
1.5225000,1.5225000,1.5225000,-0.0008589,0.0002448,-0.0693165,-0.0008589,-0.0002881,-0.0024568
1.5250000,1.5250000,1.5250000,-0.0008505,0.0002436,-0.0689739,-0.0008505,-0.0002832,-0.0024347
1.5275000,1.5275000,1.5275000,-0.0008421,0.0002424,-0.0686337,-0.0008421,-0.0002784,-0.0024129
1.5300000,1.5300000,1.5300000,-0.0008338,0.0002412,-0.0682957,-0.0008338,-0.0002736,-0.0023913
1.5325000,1.5325000,1.5325000,-0.0008256,0.0002400,-0.0679599,-0.0008256,-0.0002689,-0.0023700
1.5350000,1.5350000,1.5350000,-0.0008175,0.0002389,-0.0676262,-0.0008175,-0.0002643,-0.0023489
1.5375000,1.5375000,1.5375000,-0.0008095,0.0002377,-0.0672948,-0.0008095,-0.0002597,-0.0023280
1.5400000,1.5400000,1.5400000,-0.0008016,0.0002366,-0.0669656,-0.0008016,-0.0002552,-0.0023074
1.5425000,1.5425000,1.5425000,-0.0007938,0.0002354,-0.0666385,-0.0007938,-0.0002508,-0.0022869
1.5450000,1.5450000,1.5450000,-0.0007860,0.0002343,-0.0663135,-0.0007860,-0.0002464,-0.0022667
1.5475000,1.5475000,1.5475000,-0.0007784,0.0002332,-0.0659906,-0.0007784,-0.0002421,-0.0022467
1.5500000,1.5500000,1.5500000,-0.0007708,0.0002320,-0.0656699,-0.0007708,-0.0002378,-0.0022270
1.5525000,1.5525000,1.5525000,-0.0007633,0.0002309,-0.0653512,-0.0007633,-0.0002336,-0.0022074
1.5550000,1.5550000,1.5550000,-0.0007560,0.0002298,-0.0650346,-0.0007560,-0.0002295,-0.0021881
1.5575000,1.5575000,1.5575000,-0.0007487,0.0002287,-0.0647200,-0.0007487,-0.0002254,-0.0021690
1.5600000,1.5600000,1.5600000,-0.0007414,0.0002276,-0.0644074,-0.0007414,-0.0002213,-0.0021500
1.5625000,1.5625000,1.5625000,-0.0007343,0.0002265,-0.0640969,-0.0007343,-0.0002174,-0.0021313
1.5650000,1.5650000,1.5650000,-0.0007272,0.0002255,-0.0637883,-0.0007272,-0.0002134,-0.0021128
1.5675000,1.5675000,1.5675000,-0.0007202,0.0002244,-0.0634818,-0.0007202,-0.0002095,-0.0020945
1.5700000,1.5700000,1.5700000,-0.0007133,0.0002233,-0.0631772,-0.0007133,-0.0002057,-0.0020763
1.5725000,1.5725000,1.5725000,-0.0007065,0.0002223,-0.0628745,-0.0007065,-0.0002020,-0.0020584
1.5750000,1.5750000,1.5750000,-0.0006998,0.0002212,-0.0625738,-0.0006998,-0.0001982,-0.0020406
1.5775000,1.5775000,1.5775000,-0.0006931,0.0002202,-0.0622750,-0.0006931,-0.0001946,-0.0020231
1.5800000,1.5800000,1.5800000,-0.0006865,0.0002191,-0.0619781,-0.0006865,-0.0001909,-0.0020057
1.5825000,1.5825000,1.5825000,-0.0006799,0.0002181,-0.0616831,-0.0006799,-0.0001874,-0.0019885
1.5850000,1.5850000,1.5850000,-0.0006735,0.0002171,-0.0613900,-0.0006735,-0.0001838,-0.0019715
1.5875000,1.5875000,1.5875000,-0.0006671,0.0002161,-0.0610987,-0.0006671,-0.0001803,-0.0019547
1.5900000,1.5900000,1.5900000,-0.0006608,0.0002150,-0.0608092,-0.0006608,-0.0001769,-0.0019380
1.5925000,1.5925000,1.5925000,-0.0006545,0.0002140,-0.0605216,-0.0006545,-0.0001735,-0.0019216
1.5950000,1.5950000,1.5950000,-0.0006484,0.0002130,-0.0602358,-0.0006484,-0.0001702,-0.0019053
1.5975000,1.5975000,1.5975000,-0.0006423,0.0002120,-0.0599518,-0.0006423,-0.0001669,-0.0018891
