# r[nm],d[nm],daligned[nm],U(d)[kj/mol],V(d)[e/nm],Uslab(d)[kJ/mol],UC(d)[kJ/mol],UK(d)[kJ/mol],UCl(d)[kJ/mol]
0.1900000,0.1900000,0.1900000,1797.2145284,0.2154995,136.1867122,1797.2145284,1134.1752067,inf
0.1925000,0.1925000,0.1925000,1559.3425865,0.0857369,118.6594951,1559.3425865,985.5359513,inf
0.1950000,0.1950000,0.1950000,1348.2599396,0.0734004,103.5802878,1348.2599396,852.4237223,inf
0.1975000,0.1975000,0.1975000,1167.8033913,0.0671012,90.5828129,1167.8033913,737.9229554,inf
0.2000000,0.2000000,0.2000000,1013.2925730,0.0612423,79.3590927,1013.2925730,639.9227595,inf
0.2025000,0.2025000,0.2025000,880.7358903,0.0557683,69.6493272,880.7358903,555.9072938,inf
0.2050000,0.2050000,0.2050000,766.7974975,0.0506533,61.2337708,766.7974975,483.7485876,inf
0.2075000,0.2075000,0.2075000,668.6830045,0.0458732,53.9261482,668.6830045,421.6629573,inf
0.2100000,0.2100000,0.2100000,584.0459459,0.0414062,47.5682365,584.0459459,368.1528591,inf
0.2125000,0.2125000,0.2125000,510.9113614,0.0372314,42.0253889,510.9113614,321.9581651,inf
0.2150000,0.2150000,0.2150000,447.6131902,0.0333297,37.1828916,447.6131902,282.0161394,inf
0.2175000,0.2175000,0.2175000,392.7428482,0.0296833,32.9430506,392.7428482,247.4285486,1646.5523673
0.2200000,0.2200000,0.2200000,345.1068779,0.0262754,29.2228279,345.1068779,217.4345722,1448.0171205
0.2225000,0.2225000,0.2225000,303.6919843,0.0230906,25.9518216,303.6919843,191.3884243,1275.0624160
0.2250000,0.2250000,0.2250000,267.6360949,0.0201143,23.0704470,267.6360949,168.7408039,1124.1678339
0.2275000,0.2275000,0.2275000,236.2043473,0.0173332,20.5282822,236.2043473,149.0234502,992.3304234
0.2300000,0.2300000,0.2300000,208.7691139,0.0147346,18.2825900,208.7691139,131.8362202,876.9836747
0.2325000,0.2325000,0.2325000,184.7933364,0.0123068,16.2970252,184.7933364,116.8362323,775.9299561
0.2350000,0.2350000,0.2350000,163.8165715,0.0100389,14.5405214,163.8165715,103.7287475,687.2840526
0.2375000,0.2375000,0.2375000,145.4432560,0.0079204,12.9863431,145.4432560,92.2595710,609.4258769
0.2400000,0.2400000,0.2400000,129.3327934,0.0059402,11.6112937,129.3327934,82.2088325,540.9607777
0.2425000,0.2425000,0.2425000,115.1911554,0.0040860,10.3950633,115.1911554,73.3860344,480.6861543
0.2450000,0.2450000,0.2450000,102.7637824,0.0023423,9.3196846,102.7637824,65.6262162,427.5633182
0.2475000,0.2475000,0.2475000,91.8296353,0.0006895,8.3690601,91.8296353,58.7870089,380.6937297
0.2500000,0.2500000,0.2500000,82.1963023,-0.0008956,7.5285344,82.1963023,52.7462601,339.2988899
0.2525000,0.2525000,0.2525000,73.6960668,-0.0024381,6.7845159,73.6960668,47.3998931,302.7032933
0.2550000,0.2550000,0.2550000,66.1828190,-0.0039598,6.1241687,66.1828190,42.6597416,270.3199481
0.2575000,0.2575000,0.2575000,59.5296345,-0.0054731,5.5352098,59.5296345,38.4512752,241.6380546
0.2600000,0.2600000,0.2600000,53.6267964,-0.0069759,5.0058562,53.6267964,34.7113001,216.2124979
0.2625000,0.2625000,0.2625000,48.3800193,-0.0084485,4.5249752,48.3800193,31.3858040,193.6548685
0.2650000,0.2650000,0.2650000,43.7086940,-0.0098569,4.0824466,43.7086940,28.4280975,173.6257640
0.2675000,0.2675000,0.2675000,39.5440753,-0.0111589,3.6696528,39.5440753,25.7973233,155.8281668
0.2700000,0.2700000,0.2700000,35.8274517,-0.0123131,3.2799162,35.8274517,23.4573266,140.0017253
0.2725000,0.2725000,0.2725000,32.5084016,-0.0132868,2.9086954,32.5084016,21.3758350,125.9178035
0.2750000,0.2750000,0.2750000,29.5432433,-0.0140607,2.5534494,29.5432433,19.5238791,113.3752015
0.2775000,0.2775000,0.2775000,26.8937430,-0.0146315,2.2132217,26.8937430,17.8753896,102.1964757
0.2800000,0.2800000,0.2800000,24.5260932,-0.0150109,1.8880844,24.5260932,16.4069183,92.2248163
0.2825000,0.2825000,0.2825000,22.4101372,-0.0152236,1.5785808,22.4101372,15.0974373,83.3214397
0.2850000,0.2850000,0.2850000,20.5187972,-0.0153042,1.2852589,20.5187972,13.9281797,75.3634520
0.2875000,0.2875000,0.2875000,18.8276618,-0.0152940,1.0083480,18.8276618,12.8824896,68.2421184
0.2900000,0.2900000,0.2900000,17.3146926,-0.0152369,0.7475983,17.3146926,11.9456584,61.8614505
0.2925000,0.2925000,0.2925000,15.9600132,-0.0151763,0.5022698,15.9600132,11.1047350,56.1370050
0.2950000,0.2950000,0.2950000,14.7457500,-0.0151510,0.2712273,14.7457500,10.3483090,50.9947900
0.2975000,0.2975000,0.2975000,13.6558967,-0.0151911,0.0530803,13.6558967,9.6662785,46.3701955
0.3000000,0.3000000,0.3000000,12.6761800,-0.0153146,-0.1536831,12.6761800,9.0496260,42.2069128
0.3025000,0.3025000,0.3025000,11.7939122,-0.0155245,-0.3505825,11.7939122,8.4902229,38.4558526
0.3050000,0.3050000,0.3050000,10.9978242,-0.0158084,-0.5390397,10.9978242,7.9806882,35.0741007
0.3075000,0.3075000,0.3075000,10.2778850,-0.0161398,-0.7202695,10.2778850,7.5143092,32.0239608
0.3100000,0.3100000,0.3100000,9.6251199,-0.0164828,-0.8951773,9.6251199,7.0850230,29.2721183
0.3125000,0.3125000,0.3125000,9.0314473,-0.0167987,-1.0643045,9.0314473,6.6874397,26.7889396
0.3150000,0.3150000,0.3150000,8.4895502,-0.0170524,-1.2278466,8.4895502,6.3168788,24.5479006
0.3175000,0.3175000,0.3175000,7.9927940,-0.0172191,-1.3857422,7.9927940,5.9693866,22.5251315
0.3200000,0.3200000,0.3200000,7.5351929,-0.0172874,-1.5377934,7.5351929,5.6417152,20.6990551
0.3225000,0.3225000,0.3225000,7.1114126,-0.0172608,-1.6837705,7.1114126,5.3312575,19.0501034
0.3250000,0.3250000,0.3250000,6.7167896,-0.0171553,-1.8234781,6.7167896,5.0359525,17.5604934
0.3275000,0.3275000,0.3275000,6.3473412,-0.0169965,-1.9567867,6.3473412,4.7541834,16.2140523
0.3300000,0.3300000,0.3300000,5.9997481,-0.0168150,-2.0836637,5.9997481,4.4846921,14.9960763
0.3325000,0.3325000,0.3325000,5.6713001,-0.0166428,-2.2042221,5.6713001,4.2265197,13.8932153
0.3350000,0.3350000,0.3350000,5.3598139,-0.0165112,-2.3187654,5.3598139,3.9789733,12.8933718
0.3375000,0.3375000,0.3375000,5.0635376,-0.0164484,-2.4277792,5.0635376,3.7416026,11.9856055
0.3400000,0.3400000,0.3400000,4.7810641,-0.0164784,-2.5318377,4.7810641,3.5141711,11.1600383
0.3425000,0.3425000,0.3425000,4.5112662,-0.0166198,-2.6314487,4.5112662,3.2966091,10.4077558
0.3450000,0.3450000,0.3450000,4.2532562,-0.0168851,-2.7269034,4.2532562,3.0889481,9.7207093
0.3475000,0.3475000,0.3475000,4.0063637,-0.0172789,-2.8181932,4.0063637,2.8912453,9.0916222
0.3500000,0.3500000,0.3500000,3.7701152,-0.0177984,-2.9050200,3.7701152,2.7035161,8.5139105
0.3525000,0.3525000,0.3525000,3.5442045,-0.0184333,-2.9868859,3.5442045,2.5256845,7.9816235
0.3550000,0.3550000,0.3550000,3.3284487,-0.0191668,-3.0632214,3.3284487,2.3575596,7.4894071
0.3575000,0.3575000,0.3575000,3.1227321,-0.0199781,-3.1335113,3.1227321,2.1988335,7.0324871
0.3600000,0.3600000,0.3600000,2.9269503,-0.0208437,-3.1973852,2.9269503,2.0490932,6.6066619
0.3625000,0.3625000,0.3625000,2.7409633,-0.0217401,-3.2546598,2.7409633,1.9078397,6.2082913
0.3650000,0.3650000,0.3650000,2.5645661,-0.0226444,-3.3053344,2.5645661,1.7745091,5.8342706
0.3675000,0.3675000,0.3675000,2.3974758,-0.0235360,-3.3495515,2.3974758,1.6484938,5.4819838
0.3700000,0.3700000,0.3700000,2.2393325,-0.0243970,-3.3875423,2.2393325,1.5291590,5.1492390
0.3725000,0.3725000,0.3725000,2.0897085,-0.0252128,-3.4195727,2.0897085,1.4158452,4.8341957
0.3750000,0.3750000,0.3750000,1.9481213,-0.0259732,-3.4459038,1.9481213,1.3078513,4.5352960
0.3775000,0.3775000,0.3775000,1.8140474,-0.0266722,-3.4667701,1.8140474,1.2044024,4.2512113
0.3800000,0.3800000,0.3800000,1.6869296,-0.0273072,-3.4823756,1.6869296,1.1046205,3.9808060
0.3825000,0.3825000,0.3825000,1.5661733,-0.0278775,-3.4929012,1.5661733,1.0075274,3.7231185
0.3850000,0.3850000,0.3850000,1.4511258,-0.0283811,-3.4985180,1.4511258,0.9120991,3.4773485
0.3875000,0.3875000,0.3875000,1.3410453,-0.0288118,-3.4994012,1.3410453,0.8173730,3.2428438
0.3900000,0.3900000,0.3900000,1.2350769,-0.0291576,-3.4957406,1.2350769,0.7225822,3.0190811
0.3925000,0.3925000,0.3925000,1.1322573,-0.0293998,-3.4877477,1.1322573,0.6272777,2.8056401
0.3950000,0.3950000,0.3950000,1.0315665,-0.0295151,-3.4756574,1.0315665,0.5314014,2.6021728
0.3975000,0.3975000,0.3975000,0.9320259,-0.0294792,-3.4597265,0.9320259,0.4352892,2.4083750
0.4000000,0.4000000,0.4000000,0.8328218,-0.0292713,-3.4402299,0.8328218,0.3396083,2.2239603
0.4025000,0.4025000,0.4025000,0.7334225,-0.0288777,-3.4174547,0.7334225,0.2452489,2.0486414
0.4050000,0.4050000,0.4050000,0.6336542,-0.0282951,-3.3916946,0.6336542,0.1532009,1.8821162
0.4075000,0.4075000,0.4075000,0.5337174,-0.0275302,-3.3632440,0.5337174,0.0644407,1.7240587
0.4100000,0.4100000,0.4100000,0.4341421,-0.0265992,-3.3323925,0.4341421,-0.0201555,1.5741107
0.4125000,0.4125000,0.4125000,0.3356985,-0.0255247,-3.2994213,0.3356985,-0.0998699,1.4318721
0.4150000,0.4150000,0.4150000,0.2392871,-0.0243330,-3.2645992,0.2392871,-0.1741738,1.2968860
0.4175000,0.4175000,0.4175000,0.1458326,-0.0230512,-3.2281807,0.1458326,-0.2427392,1.1686186
0.4200000,0.4200000,0.4200000,0.0561958,-0.0217052,-3.1904037,0.0561958,-0.3054348,1.0464385
0.4225000,0.4225000,0.4225000,-0.0288895,-0.0203182,-3.1514891,-0.0288895,-0.3623116,0.9296047
0.4250000,0.4250000,0.4250000,-0.1088562,-0.0189094,-3.1116404,-0.1088562,-0.4135766,0.8172746
0.4275000,0.4275000,0.4275000,-0.1833229,-0.0174928,-3.0710435,-0.1833229,-0.4595586,0.7085428
0.4300000,0.4300000,0.4300000,-0.2520982,-0.0160771,-3.0298672,-0.2520982,-0.5006660,0.6025081
0.4325000,0.4325000,0.4325000,-0.3151706,-0.0146655,-2.9882643,-0.3151706,-0.5373428,0.4983618
0.4350000,0.4350000,0.4350000,-0.3726872,-0.0132560,-2.9463719,-0.3726872,-0.5700262,0.3954754
0.4375000,0.4375000,0.4375000,-0.4249207,-0.0118433,-2.9043126,-0.4249207,-0.5991127,0.2934706
0.4400000,0.4400000,0.4400000,-0.4722298,-0.0104209,-2.8621957,-0.4722298,-0.6249363,0.1922533
0.4425000,0.4425000,0.4425000,-0.5150153,-0.0089829,-2.8201180,-0.5150153,-0.6477591,0.0920074
0.4450000,0.4450000,0.4450000,-0.5536788,-0.0075267,-2.7781647,-0.5536788,-0.6677749,-0.0068487
0.4475000,0.4475000,0.4475000,-0.5885881,-0.0060541,-2.7364109,-0.5885881,-0.6851210,-0.1037292
0.4500000,0.4500000,0.4500000,-0.6200550,-0.0045719,-2.6949221,-0.6200550,-0.6998950,-0.1979585
0.4525000,0.4525000,0.4525000,-0.6483249,-0.0030915,-2.6537553,-0.6483249,-0.7121726,-0.2888460
0.4550000,0.4550000,0.4550000,-0.6735786,-0.0016278,-2.6129597,-0.6735786,-0.7220227,-0.3757496
0.4575000,0.4575000,0.4575000,-0.6959434,-0.0001975,-2.5725776,-0.6959434,-0.7295190,-0.4581245
0.4600000,0.4600000,0.4600000,-0.7155080,0.0011827,-2.5326452,-0.7155080,-0.7347480,-0.5355557
0.4625000,0.4625000,0.4625000,-0.7323402,0.0024971,-2.4931930,-0.7323402,-0.7378116,-0.6077756
0.4650000,0.4650000,0.4650000,-0.7465012,0.0037325,-2.4542465,-0.7465012,-0.7388278,-0.6746661
0.4675000,0.4675000,0.4675000,-0.7580577,0.0048787,-2.4158269,-0.7580577,-0.7379289,-0.7362492
0.4700000,0.4700000,0.4700000,-0.7670897,0.0059289,-2.3779515,-0.7670897,-0.7352582,-0.7926657
0.4725000,0.4725000,0.4725000,-0.7736943,0.0068793,-2.3406340,-0.7736943,-0.7309662,-0.8441456
0.4750000,0.4750000,0.4750000,-0.7779865,0.0077289,-2.3038851,-0.7779865,-0.7252065,-0.8909748
0.4775000,0.4775000,0.4775000,-0.7800976,0.0084792,-2.2677126,-0.7800976,-0.7181331,-0.9334606
0.4800000,0.4800000,0.4800000,-0.7801719,0.0091335,-2.2321222,-0.7801719,-0.7098965,-0.9719031
0.4825000,0.4825000,0.4825000,-0.7783637,0.0096967,-2.1971173,-0.7783637,-0.7006420,-1.0065720
0.4850000,0.4850000,0.4850000,-0.7748323,0.0101746,-2.1626993,-0.7748323,-0.6905076,-1.0376949
0.4875000,0.4875000,0.4875000,-0.7697394,0.0105734,-2.1288684,-0.7697394,-0.6796227,-1.0654526
0.4900000,0.4900000,0.4900000,-0.7632450,0.0108999,-2.0956229,-0.7632450,-0.6681074,-1.0899834
0.4925000,0.4925000,0.4925000,-0.7555050,0.0111609,-2.0629602,-0.7555050,-0.6560724,-1.1113918
0.4950000,0.4950000,0.4950000,-0.7466693,0.0113628,-2.0308765,-0.7466693,-0.6436183,-1.1297598
0.4975000,0.4975000,0.4975000,-0.7368798,0.0115120,-1.9993670,-0.7368798,-0.6308365,-1.1451589
0.5000000,0.5000000,0.5000000,-0.7262697,0.0116146,-1.9684264,-0.7262697,-0.6178088,-1.1576597
0.5025000,0.5025000,0.5025000,-0.7149625,0.0116759,-1.9380483,-0.7149625,-0.6046086,-1.1673404
0.5050000,0.5050000,0.5050000,-0.7030722,0.0117013,-1.9082261,-0.7030722,-0.5913008,-1.1742914
0.5075000,0.5075000,0.5075000,-0.6907027,0.0116953,-1.8789524,-0.6907027,-0.5779430,-1.1786181
0.5100000,0.5100000,0.5100000,-0.6779487,0.0116621,-1.8502197,-0.6779487,-0.5645854,-1.1804412
0.5125000,0.5125000,0.5125000,-0.6648952,0.0116057,-1.8220199,-0.6648952,-0.5512721,-1.1798954
0.5150000,0.5150000,0.5150000,-0.6516188,0.0115293,-1.7943449,-0.6516188,-0.5380412,-1.1771271
0.5175000,0.5175000,0.5175000,-0.6381878,0.0114361,-1.7671860,-0.6381878,-0.5249256,-1.1722915
0.5200000,0.5200000,0.5200000,-0.6246627,0.0113287,-1.7405347,-0.6246627,-0.5119535,-1.1655493
0.5225000,0.5225000,0.5225000,-0.6110971,0.0112094,-1.7143823,-0.6110971,-0.4991487,-1.1570639
0.5250000,0.5250000,0.5250000,-0.5975380,0.0110805,-1.6887198,-0.5975380,-0.4865314,-1.1469983
0.5275000,0.5275000,0.5275000,-0.5840265,0.0109436,-1.6635383,-0.5840265,-0.4741183,-1.1355129
0.5300000,0.5300000,0.5300000,-0.5705984,0.0108005,-1.6388290,-0.5705984,-0.4619232,-1.1227631
0.5325000,0.5325000,0.5325000,-0.5572847,0.0106525,-1.6145830,-0.5572847,-0.4499572,-1.1088984
0.5350000,0.5350000,0.5350000,-0.5441119,0.0105008,-1.5907913,-0.5441119,-0.4382291,-1.0940604
0.5375000,0.5375000,0.5375000,-0.5311027,0.0103464,-1.5674451,-0.5311027,-0.4267457,-1.0783827
0.5400000,0.5400000,0.5400000,-0.5182762,0.0101903,-1.5445356,-0.5182762,-0.4155119,-1.0619898
0.5425000,0.5425000,0.5425000,-0.5056484,0.0100333,-1.5220541,-0.5056484,-0.4045310,-1.0449972
0.5450000,0.5450000,0.5450000,-0.4932327,0.0098759,-1.4999920,-0.4932327,-0.3938053,-1.0275115
0.5475000,0.5475000,0.5475000,-0.4810399,0.0097188,-1.4783408,-0.4810399,-0.3833353,-1.0096302
0.5500000,0.5500000,0.5500000,-0.4690786,0.0095625,-1.4570921,-0.4690786,-0.3731211,-0.9914420
0.5525000,0.5525000,0.5525000,-0.4573555,0.0094073,-1.4362376,-0.4573555,-0.3631615,-0.9730274
0.5550000,0.5550000,0.5550000,-0.4458757,0.0092536,-1.4157692,-0.4458757,-0.3534548,-0.9544591
0.5575000,0.5575000,0.5575000,-0.4346427,0.0091016,-1.3956787,-0.4346427,-0.3439983,-0.9358022
0.5600000,0.5600000,0.5600000,-0.4236588,0.0089516,-1.3759584,-0.4236588,-0.3347893,-0.9171149
0.5625000,0.5625000,0.5625000,-0.4129251,0.0088038,-1.3566005,-0.4129251,-0.3258241,-0.8984492
0.5650000,0.5650000,0.5650000,-0.4024417,0.0086583,-1.3375972,-0.4024417,-0.3170990,-0.8798508
0.5675000,0.5675000,0.5675000,-0.3922081,0.0085153,-1.3189413,-0.3922081,-0.3086097,-0.8613601
0.5700000,0.5700000,0.5700000,-0.3822226,0.0083748,-1.3006252,-0.3822226,-0.3003519,-0.8430126
0.5725000,0.5725000,0.5725000,-0.3724834,0.0082370,-1.2826419,-0.3724834,-0.2923209,-0.8248393
0.5750000,0.5750000,0.5750000,-0.3629876,0.0081017,-1.2649842,-0.3629876,-0.2845120,-0.8068667
0.5775000,0.5775000,0.5775000,-0.3537324,0.0079692,-1.2476453,-0.3537324,-0.2769203,-0.7891180
0.5800000,0.5800000,0.5800000,-0.3447142,0.0078393,-1.2306185,-0.3447142,-0.2695407,-0.7716129
0.5825000,0.5825000,0.5825000,-0.3359293,0.0077122,-1.2138970,-0.3359293,-0.2623683,-0.7543677
0.5850000,0.5850000,0.5850000,-0.3273737,0.0075877,-1.1974744,-0.3273737,-0.2553979,-0.7373966
0.5875000,0.5875000,0.5875000,-0.3190430,0.0074658,-1.1813444,-0.3190430,-0.2486246,-0.7207108
0.5900000,0.5900000,0.5900000,-0.3109330,0.0073466,-1.1655007,-0.3109330,-0.2420432,-0.7043196
0.5925000,0.5925000,0.5925000,-0.3030389,0.0072300,-1.1499373,-0.3030389,-0.2356487,-0.6882303
0.5950000,0.5950000,0.5950000,-0.2953563,0.0071160,-1.1346483,-0.2953563,-0.2294361,-0.6724484
0.5975000,0.5975000,0.5975000,-0.2878803,0.0070045,-1.1196279,-0.2878803,-0.2234005,-0.6569779
0.6000000,0.6000000,0.6000000,-0.2806062,0.0068954,-1.1048703,-0.2806062,-0.2175371,-0.6418214
0.6025000,0.6025000,0.6025000,-0.2735292,0.0067888,-1.0903701,-0.2735292,-0.2118410,-0.6269804
0.6050000,0.6050000,0.6050000,-0.2666445,0.0066846,-1.0761218,-0.2666445,-0.2063075,-0.6124553
0.6075000,0.6075000,0.6075000,-0.2599473,0.0065826,-1.0621202,-0.2599473,-0.2009321,-0.5982454
0.6100000,0.6100000,0.6100000,-0.2534330,0.0064830,-1.0483601,-0.2534330,-0.1957102,-0.5843493
0.6125000,0.6125000,0.6125000,-0.2470967,0.0063855,-1.0348363,-0.2470967,-0.1906373,-0.5707651
0.6150000,0.6150000,0.6150000,-0.2409339,0.0062903,-1.0215441,-0.2409339,-0.1857092,-0.5574899
0.6175000,0.6175000,0.6175000,-0.2349399,0.0061971,-1.0084785,-0.2349399,-0.1809216,-0.5445206
0.6200000,0.6200000,0.6200000,-0.2291102,0.0061060,-0.9956348,-0.2291102,-0.1762704,-0.5318534
0.6225000,0.6225000,0.6225000,-0.2234403,0.0060168,-0.9830085,-0.2234403,-0.1717515,-0.5194843
0.6250000,0.6250000,0.6250000,-0.2179259,0.0059297,-0.9705951,-0.2179259,-0.1673610,-0.5074089
0.6275000,0.6275000,0.6275000,-0.2125628,0.0058444,-0.9583901,-0.2125628,-0.1630951,-0.4956224
0.6300000,0.6300000,0.6300000,-0.2073466,0.0057610,-0.9463893,-0.2073466,-0.1589502,-0.4841199
0.6325000,0.6325000,0.6325000,-0.2022732,0.0056794,-0.9345885,-0.2022732,-0.1549225,-0.4728964
0.6350000,0.6350000,0.6350000,-0.1973388,0.0055995,-0.9229836,-0.1973388,-0.1510085,-0.4619466
0.6375000,0.6375000,0.6375000,-0.1925392,0.0055213,-0.9115706,-0.1925392,-0.1472049,-0.4512652
0.6400000,0.6400000,0.6400000,-0.1878707,0.0054448,-0.9003457,-0.1878707,-0.1435083,-0.4408467
0.6425000,0.6425000,0.6425000,-0.1833296,0.0053698,-0.8893049,-0.1833296,-0.1399155,-0.4306856
0.6450000,0.6450000,0.6450000,-0.1789121,0.0052965,-0.8784445,-0.1789121,-0.1364233,-0.4207763
0.6475000,0.6475000,0.6475000,-0.1746148,0.0052246,-0.8677610,-0.1746148,-0.1330288,-0.4111135
0.6500000,0.6500000,0.6500000,-0.1704342,0.0051543,-0.8572508,-0.1704342,-0.1297290,-0.4016914
0.6525000,0.6525000,0.6525000,-0.1663669,0.0050854,-0.8469104,-0.1663669,-0.1265210,-0.3925047
0.6550000,0.6550000,0.6550000,-0.1624096,0.0050178,-0.8367364,-0.1624096,-0.1234021,-0.3835477
0.6575000,0.6575000,0.6575000,-0.1585591,0.0049517,-0.8267256,-0.1585591,-0.1203695,-0.3748151
0.6600000,0.6600000,0.6600000,-0.1548124,0.0048868,-0.8168746,-0.1548124,-0.1174207,-0.3663014
0.6625000,0.6625000,0.6625000,-0.1511664,0.0048233,-0.8071803,-0.1511664,-0.1145532,-0.3580015
0.6650000,0.6650000,0.6650000,-0.1476182,0.0047610,-0.7976396,-0.1476182,-0.1117645,-0.3499099
0.6675000,0.6675000,0.6675000,-0.1441650,0.0046999,-0.7882496,-0.1441650,-0.1090522,-0.3420215
0.6700000,0.6700000,0.6700000,-0.1408040,0.0046400,-0.7790072,-0.1408040,-0.1064140,-0.3343313
0.6725000,0.6725000,0.6725000,-0.1375325,0.0045813,-0.7699096,-0.1375325,-0.1038477,-0.3268343
0.6750000,0.6750000,0.6750000,-0.1343479,0.0045237,-0.7609540,-0.1343479,-0.1013513,-0.3195254
0.6775000,0.6775000,0.6775000,-0.1312477,0.0044671,-0.7521376,-0.1312477,-0.0989224,-0.3124000
0.6800000,0.6800000,0.6800000,-0.1282294,0.0044117,-0.7434577,-0.1282294,-0.0965593,-0.3054532
0.6825000,0.6825000,0.6825000,-0.1252907,0.0043572,-0.7349117,-0.1252907,-0.0942598,-0.2986805
0.6850000,0.6850000,0.6850000,-0.1224293,0.0043038,-0.7264970,-0.1224293,-0.0920222,-0.2920773
0.6875000,0.6875000,0.6875000,-0.1196429,0.0042514,-0.7182112,-0.1196429,-0.0898445,-0.2856392
0.6900000,0.6900000,0.6900000,-0.1169294,0.0041999,-0.7100517,-0.1169294,-0.0877250,-0.2793620
0.6925000,0.6925000,0.6925000,-0.1142865,0.0041493,-0.7020162,-0.1142865,-0.0856619,-0.2732412
0.6950000,0.6950000,0.6950000,-0.1117124,0.0040997,-0.6941024,-0.1117124,-0.0836537,-0.2672729
0.6975000,0.6975000,0.6975000,-0.1092051,0.0040509,-0.6863079,-0.1092051,-0.0816986,-0.2614530
0.7000000,0.7000000,0.7000000,-0.1067625,0.0040031,-0.6786304,-0.1067625,-0.0797952,-0.2557775
0.7025000,0.7025000,0.7025000,-0.1043829,0.0039560,-0.6710679,-0.1043829,-0.0779418,-0.2502427
0.7050000,0.7050000,0.7050000,-0.1020644,0.0039098,-0.6636181,-0.1020644,-0.0761372,-0.2448448
0.7075000,0.7075000,0.7075000,-0.0998054,0.0038644,-0.6562790,-0.0998054,-0.0743797,-0.2395801
0.7100000,0.7100000,0.7100000,-0.0976040,0.0038197,-0.6490485,-0.0976040,-0.0726681,-0.2344452
0.7125000,0.7125000,0.7125000,-0.0954587,0.0037758,-0.6419245,-0.0954587,-0.0710010,-0.2294365
0.7150000,0.7150000,0.7150000,-0.0933678,0.0037327,-0.6349053,-0.0933678,-0.0693771,-0.2245506
0.7175000,0.7175000,0.7175000,-0.0913299,0.0036903,-0.6279887,-0.0913299,-0.0677952,-0.2197844
0.7200000,0.7200000,0.7200000,-0.0893434,0.0036486,-0.6211731,-0.0893434,-0.0662540,-0.2151346
0.7225000,0.7225000,0.7225000,-0.0874068,0.0036075,-0.6144564,-0.0874068,-0.0647524,-0.2105982
0.7250000,0.7250000,0.7250000,-0.0855189,0.0035672,-0.6078369,-0.0855189,-0.0632893,-0.2061720
0.7275000,0.7275000,0.7275000,-0.0836781,0.0035275,-0.6013129,-0.0836781,-0.0618636,-0.2018531
0.7300000,0.7300000,0.7300000,-0.0818831,0.0034885,-0.5948827,-0.0818831,-0.0604741,-0.1976388
0.7325000,0.7325000,0.7325000,-0.0801328,0.0034501,-0.5885445,-0.0801328,-0.0591199,-0.1935261
0.7350000,0.7350000,0.7350000,-0.0784258,0.0034123,-0.5822967,-0.0784258,-0.0578000,-0.1895125
0.7375000,0.7375000,0.7375000,-0.0767610,0.0033751,-0.5761377,-0.0767610,-0.0565133,-0.1855953
0.7400000,0.7400000,0.7400000,-0.0751371,0.0033385,-0.5700660,-0.0751371,-0.0552590,-0.1817718
0.7425000,0.7425000,0.7425000,-0.0735530,0.0033025,-0.5640799,-0.0735530,-0.0540361,-0.1780397
0.7450000,0.7450000,0.7450000,-0.0720077,0.0032671,-0.5581780,-0.0720077,-0.0528438,-0.1743965
0.7475000,0.7475000,0.7475000,-0.0705001,0.0032322,-0.5523587,-0.0705001,-0.0516812,-0.1708399
0.7500000,0.7500000,0.7500000,-0.0690290,0.0031978,-0.5466207,-0.0690290,-0.0505474,-0.1673675
0.7525000,0.7525000,0.7525000,-0.0675936,0.0031639,-0.5409625,-0.0675936,-0.0494417,-0.1639772
0.7550000,0.7550000,0.7550000,-0.0661929,0.0031306,-0.5353828,-0.0661929,-0.0483633,-0.1606668
0.7575000,0.7575000,0.7575000,-0.0648258,0.0030978,-0.5298801,-0.0648258,-0.0473114,-0.1574342
0.7600000,0.7600000,0.7600000,-0.0634916,0.0030655,-0.5244532,-0.0634916,-0.0462854,-0.1542773
0.7625000,0.7625000,0.7625000,-0.0621892,0.0030336,-0.5191007,-0.0621892,-0.0452844,-0.1511942
0.7650000,0.7650000,0.7650000,-0.0609179,0.0030023,-0.5138213,-0.0609179,-0.0443078,-0.1481829
0.7675000,0.7675000,0.7675000,-0.0596768,0.0029714,-0.5086138,-0.0596768,-0.0433550,-0.1452416
0.7700000,0.7700000,0.7700000,-0.0584651,0.0029409,-0.5034771,-0.0584651,-0.0424252,-0.1423684
0.7725000,0.7725000,0.7725000,-0.0572820,0.0029109,-0.4984098,-0.0572820,-0.0415179,-0.1395616
0.7750000,0.7750000,0.7750000,-0.0561267,0.0028813,-0.4934108,-0.0561267,-0.0406325,-0.1368195
0.7775000,0.7775000,0.7775000,-0.0549985,0.0028522,-0.4884789,-0.0549985,-0.0397683,-0.1341403
0.7800000,0.7800000,0.7800000,-0.0538967,0.0028235,-0.4836131,-0.0538967,-0.0389248,-0.1315225
0.7825000,0.7825000,0.7825000,-0.0528206,0.0027951,-0.4788122,-0.0528206,-0.0381014,-0.1289644
0.7850000,0.7850000,0.7850000,-0.0517695,0.0027672,-0.4740751,-0.0517695,-0.0372976,-0.1264646
0.7875000,0.7875000,0.7875000,-0.0507427,0.0027397,-0.4694008,-0.0507427,-0.0365129,-0.1240215
0.7900000,0.7900000,0.7900000,-0.0497396,0.0027126,-0.4647882,-0.0497396,-0.0357468,-0.1216337
0.7925000,0.7925000,0.7925000,-0.0487596,0.0026858,-0.4602363,-0.0487596,-0.0349987,-0.1192998
0.7950000,0.7950000,0.7950000,-0.0478021,0.0026594,-0.4557441,-0.0478021,-0.0342682,-0.1170183
0.7975000,0.7975000,0.7975000,-0.0468665,0.0026334,-0.4513106,-0.0468665,-0.0335548,-0.1147881
0.8000000,0.8000000,0.8000000,-0.0459522,0.0026078,-0.4469349,-0.0459522,-0.0328581,-0.1126077
0.8025000,0.8025000,0.8025000,-0.0450586,0.0025825,-0.4426160,-0.0450586,-0.0321777,-0.1104759
0.8050000,0.8050000,0.8050000,-0.0441853,0.0025575,-0.4383529,-0.0441853,-0.0315130,-0.1083915
0.8075000,0.8075000,0.8075000,-0.0433318,0.0025329,-0.4341449,-0.0433318,-0.0308637,-0.1063533
0.8100000,0.8100000,0.8100000,-0.0424974,0.0025086,-0.4299910,-0.0424974,-0.0302295,-0.1043601
0.8125000,0.8125000,0.8125000,-0.0416817,0.0024846,-0.4258903,-0.0416817,-0.0296098,-0.1024108
0.8150000,0.8150000,0.8150000,-0.0408843,0.0024610,-0.4218420,-0.0408843,-0.0290044,-0.1005043
0.8175000,0.8175000,0.8175000,-0.0401047,0.0024377,-0.4178452,-0.0401047,-0.0284128,-0.0986395
0.8200000,0.8200000,0.8200000,-0.0393424,0.0024146,-0.4138991,-0.0393424,-0.0278348,-0.0968155
0.8225000,0.8225000,0.8225000,-0.0385969,0.0023919,-0.4100029,-0.0385969,-0.0272699,-0.0950311
0.8250000,0.8250000,0.8250000,-0.0378680,0.0023695,-0.4061558,-0.0378680,-0.0267178,-0.0932855
0.8275000,0.8275000,0.8275000,-0.0371551,0.0023474,-0.4023571,-0.0371551,-0.0261782,-0.0915776
0.8300000,0.8300000,0.8300000,-0.0364578,0.0023255,-0.3986059,-0.0364578,-0.0256508,-0.0899066
0.8325000,0.8325000,0.8325000,-0.0357758,0.0023040,-0.3949016,-0.0357758,-0.0251353,-0.0882714
0.8350000,0.8350000,0.8350000,-0.0351087,0.0022827,-0.3912434,-0.0351087,-0.0246313,-0.0866714
0.8375000,0.8375000,0.8375000,-0.0344560,0.0022617,-0.3876306,-0.0344560,-0.0241386,-0.0851055
0.8400000,0.8400000,0.8400000,-0.0338176,0.0022409,-0.3840624,-0.0338176,-0.0236569,-0.0835729
0.8425000,0.8425000,0.8425000,-0.0331929,0.0022205,-0.3805382,-0.0331929,-0.0231859,-0.0820730
0.8450000,0.8450000,0.8450000,-0.0325816,0.0022002,-0.3770573,-0.0325816,-0.0227254,-0.0806047
0.8475000,0.8475000,0.8475000,-0.0319835,0.0021803,-0.3736190,-0.0319835,-0.0222751,-0.0791675
0.8500000,0.8500000,0.8500000,-0.0313982,0.0021606,-0.3702227,-0.0313982,-0.0218347,-0.0777606
0.8525000,0.8525000,0.8525000,-0.0308254,0.0021411,-0.3668678,-0.0308254,-0.0214039,-0.0763831
0.8550000,0.8550000,0.8550000,-0.0302648,0.0021219,-0.3635536,-0.0302648,-0.0209827,-0.0750345
0.8575000,0.8575000,0.8575000,-0.0297161,0.0021029,-0.3602794,-0.0297161,-0.0205706,-0.0737140
0.8600000,0.8600000,0.8600000,-0.0291790,0.0020841,-0.3570447,-0.0291790,-0.0201676,-0.0724209
0.8625000,0.8625000,0.8625000,-0.0286532,0.0020656,-0.3538489,-0.0286532,-0.0197733,-0.0711547
0.8650000,0.8650000,0.8650000,-0.0281385,0.0020473,-0.3506914,-0.0281385,-0.0193876,-0.0699146
0.8675000,0.8675000,0.8675000,-0.0276346,0.0020292,-0.3475717,-0.0276346,-0.0190102,-0.0687001
0.8700000,0.8700000,0.8700000,-0.0271412,0.0020114,-0.3444890,-0.0271412,-0.0186410,-0.0675106
0.8725000,0.8725000,0.8725000,-0.0266580,0.0019937,-0.3414430,-0.0266580,-0.0182797,-0.0663454
0.8750000,0.8750000,0.8750000,-0.0261849,0.0019763,-0.3384331,-0.0261849,-0.0179262,-0.0652040
0.8775000,0.8775000,0.8775000,-0.0257216,0.0019591,-0.3354586,-0.0257216,-0.0175803,-0.0640859
0.8800000,0.8800000,0.8800000,-0.0252679,0.0019421,-0.3325192,-0.0252679,-0.0172417,-0.0629904
0.8825000,0.8825000,0.8825000,-0.0248235,0.0019253,-0.3296142,-0.0248235,-0.0169103,-0.0619171
0.8850000,0.8850000,0.8850000,-0.0243883,0.0019087,-0.3267432,-0.0243883,-0.0165860,-0.0608655
0.8875000,0.8875000,0.8875000,-0.0239619,0.0018922,-0.3239057,-0.0239619,-0.0162686,-0.0598350
0.8900000,0.8900000,0.8900000,-0.0235442,0.0018760,-0.3211012,-0.0235442,-0.0159579,-0.0588253
0.8925000,0.8925000,0.8925000,-0.0231351,0.0018600,-0.3183291,-0.0231351,-0.0156537,-0.0578357
0.8950000,0.8950000,0.8950000,-0.0227342,0.0018442,-0.3155892,-0.0227342,-0.0153559,-0.0568658
0.8975000,0.8975000,0.8975000,-0.0223415,0.0018285,-0.3128807,-0.0223415,-0.0150644,-0.0559152
0.9000000,0.9000000,0.9000000,-0.0219566,0.0018130,-0.3102034,-0.0219566,-0.0147789,-0.0549835
0.9025000,0.9025000,0.9025000,-0.0215796,0.0017977,-0.3075568,-0.0215796,-0.0144994,-0.0540702
0.9050000,0.9050000,0.9050000,-0.0212100,0.0017826,-0.3049403,-0.0212100,-0.0142257,-0.0531749
0.9075000,0.9075000,0.9075000,-0.0208479,0.0017676,-0.3023537,-0.0208479,-0.0139578,-0.0522972
0.9100000,0.9100000,0.9100000,-0.0204929,0.0017529,-0.2997964,-0.0204929,-0.0136953,-0.0514366
0.9125000,0.9125000,0.9125000,-0.0201451,0.0017382,-0.2972681,-0.0201451,-0.0134383,-0.0505929
0.9150000,0.9150000,0.9150000,-0.0198041,0.0017238,-0.2947683,-0.0198041,-0.0131865,-0.0497656
0.9175000,0.9175000,0.9175000,-0.0194699,0.0017095,-0.2922967,-0.0194699,-0.0129400,-0.0489544
0.9200000,0.9200000,0.9200000,-0.0191422,0.0016954,-0.2898527,-0.0191422,-0.0126985,-0.0481589
0.9225000,0.9225000,0.9225000,-0.0188210,0.0016814,-0.2874362,-0.0188210,-0.0124619,-0.0473787
0.9250000,0.9250000,0.9250000,-0.0185061,0.0016676,-0.2850466,-0.0185061,-0.0122301,-0.0466136
0.9275000,0.9275000,0.9275000,-0.0181973,0.0016540,-0.2826835,-0.0181973,-0.0120031,-0.0458632
0.9300000,0.9300000,0.9300000,-0.0178946,0.0016405,-0.2803467,-0.0178946,-0.0117807,-0.0451271
0.9325000,0.9325000,0.9325000,-0.0175977,0.0016271,-0.2780358,-0.0175977,-0.0115628,-0.0444050
0.9350000,0.9350000,0.9350000,-0.0173066,0.0016139,-0.2757503,-0.0173066,-0.0113492,-0.0436967
0.9375000,0.9375000,0.9375000,-0.0170211,0.0016009,-0.2734900,-0.0170211,-0.0111400,-0.0430019
0.9400000,0.9400000,0.9400000,-0.0167411,0.0015879,-0.2712544,-0.0167411,-0.0109350,-0.0423202
0.9425000,0.9425000,0.9425000,-0.0164665,0.0015752,-0.2690433,-0.0164665,-0.0107341,-0.0416513
0.9450000,0.9450000,0.9450000,-0.0161971,0.0015625,-0.2668564,-0.0161971,-0.0105372,-0.0409950
0.9475000,0.9475000,0.9475000,-0.0159329,0.0015500,-0.2646932,-0.0159329,-0.0103442,-0.0403511
0.9500000,0.9500000,0.9500000,-0.0156737,0.0015377,-0.2625535,-0.0156737,-0.0101551,-0.0397192
0.9525000,0.9525000,0.9525000,-0.0154195,0.0015254,-0.2604369,-0.0154195,-0.0099697,-0.0390990
0.9550000,0.9550000,0.9550000,-0.0151700,0.0015133,-0.2583431,-0.0151700,-0.0097881,-0.0384904
0.9575000,0.9575000,0.9575000,-0.0149253,0.0015014,-0.2562719,-0.0149253,-0.0096100,-0.0378931
0.9600000,0.9600000,0.9600000,-0.0146852,0.0014895,-0.2542229,-0.0146852,-0.0094354,-0.0373068
0.9625000,0.9625000,0.9625000,-0.0144496,0.0014778,-0.2521958,-0.0144496,-0.0092642,-0.0367314
0.9650000,0.9650000,0.9650000,-0.0142184,0.0014662,-0.2501903,-0.0142184,-0.0090964,-0.0361665
0.9675000,0.9675000,0.9675000,-0.0139915,0.0014548,-0.2482062,-0.0139915,-0.0089319,-0.0356120
0.9700000,0.9700000,0.9700000,-0.0137689,0.0014434,-0.2462431,-0.0137689,-0.0087706,-0.0350676
0.9725000,0.9725000,0.9725000,-0.0135504,0.0014322,-0.2443008,-0.0135504,-0.0086124,-0.0345331
0.9750000,0.9750000,0.9750000,-0.0133359,0.0014211,-0.2423790,-0.0133359,-0.0084574,-0.0340084
0.9775000,0.9775000,0.9775000,-0.0131254,0.0014101,-0.2404774,-0.0131254,-0.0083053,-0.0334932
0.9800000,0.9800000,0.9800000,-0.0129188,0.0013992,-0.2385957,-0.0129188,-0.0081562,-0.0329872
0.9825000,0.9825000,0.9825000,-0.0127160,0.0013884,-0.2367338,-0.0127160,-0.0080099,-0.0324905
0.9850000,0.9850000,0.9850000,-0.0125169,0.0013778,-0.2348913,-0.0125169,-0.0078665,-0.0320026
0.9875000,0.9875000,0.9875000,-0.0123215,0.0013672,-0.2330680,-0.0123215,-0.0077258,-0.0315235
0.9900000,0.9900000,0.9900000,-0.0121296,0.0013568,-0.2312636,-0.0121296,-0.0075879,-0.0310529
0.9925000,0.9925000,0.9925000,-0.0119412,0.0013465,-0.2294779,-0.0119412,-0.0074525,-0.0305908
0.9950000,0.9950000,0.9950000,-0.0117562,0.0013363,-0.2277106,-0.0117562,-0.0073198,-0.0301368
0.9975000,0.9975000,0.9975000,-0.0115746,0.0013262,-0.2259615,-0.0115746,-0.0071896,-0.0296909
1.0000000,1.0000000,1.0000000,-0.0113962,0.0013161,-0.2242304,-0.0113962,-0.0070619,-0.0292529
1.0025000,1.0025000,1.0025000,-0.0112211,0.0013062,-0.2225171,-0.0112211,-0.0069366,-0.0288227
1.0050000,1.0050000,1.0050000,-0.0110491,0.0012964,-0.2208212,-0.0110491,-0.0068136,-0.0283999
1.0075000,1.0075000,1.0075000,-0.0108801,0.0012867,-0.2191427,-0.0108801,-0.0066930,-0.0279846
1.0100000,1.0100000,1.0100000,-0.0107142,0.0012771,-0.2174812,-0.0107142,-0.0065747,-0.0275766
1.0125000,1.0125000,1.0125000,-0.0105513,0.0012676,-0.2158365,-0.0105513,-0.0064586,-0.0271757
1.0150000,1.0150000,1.0150000,-0.0103912,0.0012582,-0.2142085,-0.0103912,-0.0063446,-0.0267817
1.0175000,1.0175000,1.0175000,-0.0102340,0.0012488,-0.2125969,-0.0102340,-0.0062328,-0.0263946
1.0200000,1.0200000,1.0200000,-0.0100796,0.0012396,-0.2110015,-0.0100796,-0.0061231,-0.0260142
1.0225000,1.0225000,1.0225000,-0.0099278,0.0012304,-0.2094222,-0.0099278,-0.0060155,-0.0256404
1.0250000,1.0250000,1.0250000,-0.0097788,0.0012214,-0.2078586,-0.0097788,-0.0059098,-0.0252729
1.0275000,1.0275000,1.0275000,-0.0096323,0.0012124,-0.2063107,-0.0096323,-0.0058061,-0.0249118
1.0300000,1.0300000,1.0300000,-0.0094885,0.0012036,-0.2047781,-0.0094885,-0.0057044,-0.0245569
1.0325000,1.0325000,1.0325000,-0.0093471,0.0011948,-0.2032608,-0.0093471,-0.0056045,-0.0242080
1.0350000,1.0350000,1.0350000,-0.0092082,0.0011861,-0.2017585,-0.0092082,-0.0055064,-0.0238651
1.0375000,1.0375000,1.0375000,-0.0090717,0.0011775,-0.2002711,-0.0090717,-0.0054102,-0.0235280
1.0400000,1.0400000,1.0400000,-0.0089376,0.0011689,-0.1987983,-0.0089376,-0.0053157,-0.0231966
1.0425000,1.0425000,1.0425000,-0.0088058,0.0011605,-0.1973401,-0.0088058,-0.0052230,-0.0228708
1.0450000,1.0450000,1.0450000,-0.0086762,0.0011521,-0.1958961,-0.0086762,-0.0051320,-0.0225504
1.0475000,1.0475000,1.0475000,-0.0085489,0.0011438,-0.1944662,-0.0085489,-0.0050426,-0.0222355
1.0500000,1.0500000,1.0500000,-0.0084237,0.0011356,-0.1930503,-0.0084237,-0.0049549,-0.0219258
1.0525000,1.0525000,1.0525000,-0.0083008,0.0011275,-0.1916482,-0.0083008,-0.0048688,-0.0216214
1.0550000,1.0550000,1.0550000,-0.0081799,0.0011194,-0.1902597,-0.0081799,-0.0047842,-0.0213219
1.0575000,1.0575000,1.0575000,-0.0080610,0.0011115,-0.1888846,-0.0080610,-0.0047012,-0.0210275
1.0600000,1.0600000,1.0600000,-0.0079442,0.0011036,-0.1875229,-0.0079442,-0.0046196,-0.0207379
1.0625000,1.0625000,1.0625000,-0.0078293,0.0010957,-0.1861742,-0.0078293,-0.0045396,-0.0204532
1.0650000,1.0650000,1.0650000,-0.0077164,0.0010880,-0.1848386,-0.0077164,-0.0044610,-0.0201731
1.0675000,1.0675000,1.0675000,-0.0076054,0.0010803,-0.1835157,-0.0076054,-0.0043838,-0.0198976
1.0700000,1.0700000,1.0700000,-0.0074963,0.0010727,-0.1822055,-0.0074963,-0.0043080,-0.0196267
1.0725000,1.0725000,1.0725000,-0.0073890,0.0010652,-0.1809078,-0.0073890,-0.0042335,-0.0193602
1.0750000,1.0750000,1.0750000,-0.0072834,0.0010577,-0.1796225,-0.0072834,-0.0041604,-0.0190980
1.0775000,1.0775000,1.0775000,-0.0071797,0.0010504,-0.1783493,-0.0071797,-0.0040886,-0.0188401
1.0800000,1.0800000,1.0800000,-0.0070776,0.0010430,-0.1770882,-0.0070776,-0.0040181,-0.0185864
1.0825000,1.0825000,1.0825000,-0.0069773,0.0010358,-0.1758391,-0.0069773,-0.0039488,-0.0183368
1.0850000,1.0850000,1.0850000,-0.0068786,0.0010286,-0.1746017,-0.0068786,-0.0038808,-0.0180913
1.0875000,1.0875000,1.0875000,-0.0067816,0.0010215,-0.1733760,-0.0067816,-0.0038139,-0.0178496
1.0900000,1.0900000,1.0900000,-0.0066861,0.0010144,-0.1721617,-0.0066861,-0.0037483,-0.0176119
1.0925000,1.0925000,1.0925000,-0.0065923,0.0010074,-0.1709589,-0.0065923,-0.0036838,-0.0173780
1.0950000,1.0950000,1.0950000,-0.0064999,0.0010005,-0.1697673,-0.0064999,-0.0036204,-0.0171478
1.0975000,1.0975000,1.0975000,-0.0064091,0.0009937,-0.1685867,-0.0064091,-0.0035582,-0.0169213
1.1000000,1.1000000,1.1000000,-0.0063197,0.0009869,-0.1674172,-0.0063197,-0.0034971,-0.0166984
1.1025000,1.1025000,1.1025000,-0.0062318,0.0009801,-0.1662585,-0.0062318,-0.0034370,-0.0164790
1.1050000,1.1050000,1.1050000,-0.0061454,0.0009735,-0.1651105,-0.0061454,-0.0033780,-0.0162631
1.1075000,1.1075000,1.1075000,-0.0060603,0.0009669,-0.1639731,-0.0060603,-0.0033200,-0.0160507
1.1100000,1.1100000,1.1100000,-0.0059766,0.0009603,-0.1628461,-0.0059766,-0.0032630,-0.0158415
1.1125000,1.1125000,1.1125000,-0.0058943,0.0009538,-0.1617296,-0.0058943,-0.0032071,-0.0156357
1.1150000,1.1150000,1.1150000,-0.0058133,0.0009474,-0.1606232,-0.0058133,-0.0031521,-0.0154330
1.1175000,1.1175000,1.1175000,-0.0057336,0.0009410,-0.1595270,-0.0057336,-0.0030980,-0.0152336
1.1200000,1.1200000,1.1200000,-0.0056551,0.0009347,-0.1584408,-0.0056551,-0.0030449,-0.0150372
1.1225000,1.1225000,1.1225000,-0.0055779,0.0009284,-0.1573644,-0.0055779,-0.0029927,-0.0148439
1.1250000,1.1250000,1.1250000,-0.0055020,0.0009222,-0.1562978,-0.0055020,-0.0029414,-0.0146536
1.1275000,1.1275000,1.1275000,-0.0054272,0.0009161,-0.1552409,-0.0054272,-0.0028910,-0.0144662
1.1300000,1.1300000,1.1300000,-0.0053537,0.0009100,-0.1541936,-0.0053537,-0.0028415,-0.0142818
1.1325000,1.1325000,1.1325000,-0.0052813,0.0009040,-0.1531556,-0.0052813,-0.0027928,-0.0141002
1.1350000,1.1350000,1.1350000,-0.0052100,0.0008980,-0.1521271,-0.0052100,-0.0027449,-0.0139213
1.1375000,1.1375000,1.1375000,-0.0051399,0.0008920,-0.1511077,-0.0051399,-0.0026979,-0.0137452
1.1400000,1.1400000,1.1400000,-0.0050709,0.0008862,-0.1500975,-0.0050709,-0.0026517,-0.0135718
1.1425000,1.1425000,1.1425000,-0.0050029,0.0008803,-0.1490963,-0.0050029,-0.0026063,-0.0134010
1.1450000,1.1450000,1.1450000,-0.0049361,0.0008746,-0.1481040,-0.0049361,-0.0025616,-0.0132329
1.1475000,1.1475000,1.1475000,-0.0048702,0.0008688,-0.1471206,-0.0048702,-0.0025177,-0.0130673
1.1500000,1.1500000,1.1500000,-0.0048054,0.0008631,-0.1461459,-0.0048054,-0.0024746,-0.0129041
1.1525000,1.1525000,1.1525000,-0.0047416,0.0008575,-0.1451798,-0.0047416,-0.0024321,-0.0127435
1.1550000,1.1550000,1.1550000,-0.0046788,0.0008519,-0.1442222,-0.0046788,-0.0023905,-0.0125853
1.1575000,1.1575000,1.1575000,-0.0046170,0.0008464,-0.1432731,-0.0046170,-0.0023495,-0.0124294
1.1600000,1.1600000,1.1600000,-0.0045561,0.0008409,-0.1423323,-0.0045561,-0.0023092,-0.0122759
1.1625000,1.1625000,1.1625000,-0.0044961,0.0008355,-0.1413998,-0.0044961,-0.0022695,-0.0121247
1.1650000,1.1650000,1.1650000,-0.0044371,0.0008301,-0.1404754,-0.0044371,-0.0022306,-0.0119757
1.1675000,1.1675000,1.1675000,-0.0043790,0.0008248,-0.1395592,-0.0043790,-0.0021923,-0.0118290
1.1700000,1.1700000,1.1700000,-0.0043217,0.0008195,-0.1386509,-0.0043217,-0.0021546,-0.0116844
1.1725000,1.1725000,1.1725000,-0.0042654,0.0008142,-0.1377505,-0.0042654,-0.0021176,-0.0115419
1.1750000,1.1750000,1.1750000,-0.0042099,0.0008090,-0.1368579,-0.0042099,-0.0020812,-0.0114016
1.1775000,1.1775000,1.1775000,-0.0041552,0.0008039,-0.1359730,-0.0041552,-0.0020454,-0.0112633
1.1800000,1.1800000,1.1800000,-0.0041014,0.0007987,-0.1350958,-0.0041014,-0.0020102,-0.0111271
1.1825000,1.1825000,1.1825000,-0.0040484,0.0007937,-0.1342261,-0.0040484,-0.0019756,-0.0109929
1.1850000,1.1850000,1.1850000,-0.0039961,0.0007886,-0.1333640,-0.0039961,-0.0019416,-0.0108606
1.1875000,1.1875000,1.1875000,-0.0039447,0.0007837,-0.1325092,-0.0039447,-0.0019081,-0.0107303
1.1900000,1.1900000,1.1900000,-0.0038941,0.0007787,-0.1316617,-0.0038941,-0.0018752,-0.0106018
1.1925000,1.1925000,1.1925000,-0.0038442,0.0007738,-0.1308215,-0.0038442,-0.0018429,-0.0104753
1.1950000,1.1950000,1.1950000,-0.0037950,0.0007689,-0.1299885,-0.0037950,-0.0018110,-0.0103505
1.1975000,1.1975000,1.1975000,-0.0037466,0.0007641,-0.1291625,-0.0037466,-0.0017797,-0.0102276
1.2000000,1.2000000,1.2000000,-0.0036989,0.0007593,-0.1283435,-0.0036989,-0.0017490,-0.0101064
1.2025000,1.2025000,1.2025000,-0.0036519,0.0007546,-0.1275315,-0.0036519,-0.0017187,-0.0099870
1.2050000,1.2050000,1.2050000,-0.0036056,0.0007499,-0.1267264,-0.0036056,-0.0016889,-0.0098693
1.2075000,1.2075000,1.2075000,-0.0035600,0.0007452,-0.1259280,-0.0035600,-0.0016596,-0.0097532
1.2100000,1.2100000,1.2100000,-0.0035151,0.0007406,-0.1251364,-0.0035151,-0.0016308,-0.0096389
1.2125000,1.2125000,1.2125000,-0.0034708,0.0007360,-0.1243514,-0.0034708,-0.0016025,-0.0095261
1.2150000,1.2150000,1.2150000,-0.0034272,0.0007315,-0.1235730,-0.0034272,-0.0015746,-0.0094150
1.2175000,1.2175000,1.2175000,-0.0033842,0.0007270,-0.1228010,-0.0033842,-0.0015472,-0.0093054
1.2200000,1.2200000,1.2200000,-0.0033419,0.0007225,-0.1220356,-0.0033419,-0.0015202,-0.0091974
1.2225000,1.2225000,1.2225000,-0.0033001,0.0007181,-0.1212765,-0.0033001,-0.0014937,-0.0090909
1.2250000,1.2250000,1.2250000,-0.0032590,0.0007137,-0.1205237,-0.0032590,-0.0014676,-0.0089860
1.2275000,1.2275000,1.2275000,-0.0032185,0.0007093,-0.1197771,-0.0032185,-0.0014420,-0.0088825
1.2300000,1.2300000,1.2300000,-0.0031786,0.0007050,-0.1190368,-0.0031786,-0.0014167,-0.0087804
1.2325000,1.2325000,1.2325000,-0.0031392,0.0007007,-0.1183025,-0.0031392,-0.0013919,-0.0086798
1.2350000,1.2350000,1.2350000,-0.0031004,0.0006964,-0.1175743,-0.0031004,-0.0013674,-0.0085805
1.2375000,1.2375000,1.2375000,-0.0030622,0.0006922,-0.1168521,-0.0030622,-0.0013434,-0.0084827
1.2400000,1.2400000,1.2400000,-0.0030245,0.0006880,-0.1161358,-0.0030245,-0.0013198,-0.0083862
1.2425000,1.2425000,1.2425000,-0.0029874,0.0006839,-0.1154254,-0.0029874,-0.0012965,-0.0082911
1.2450000,1.2450000,1.2450000,-0.0029508,0.0006797,-0.1147208,-0.0029508,-0.0012736,-0.0081972
1.2475000,1.2475000,1.2475000,-0.0029147,0.0006756,-0.1140219,-0.0029147,-0.0012511,-0.0081047
1.2500000,1.2500000,1.2500000,-0.0028791,0.0006716,-0.1133287,-0.0028791,-0.0012289,-0.0080134
1.2525000,1.2525000,1.2525000,-0.0028441,0.0006676,-0.1126411,-0.0028441,-0.0012071,-0.0079234
1.2550000,1.2550000,1.2550000,-0.0028095,0.0006636,-0.1119591,-0.0028095,-0.0011857,-0.0078346
1.2575000,1.2575000,1.2575000,-0.0027755,0.0006596,-0.1112826,-0.0027755,-0.0011646,-0.0077471
1.2600000,1.2600000,1.2600000,-0.0027419,0.0006557,-0.1106116,-0.0027419,-0.0011438,-0.0076607
1.2625000,1.2625000,1.2625000,-0.0027088,0.0006518,-0.1099460,-0.0027088,-0.0011233,-0.0075755
1.2650000,1.2650000,1.2650000,-0.0026761,0.0006479,-0.1092857,-0.0026761,-0.0011032,-0.0074915
1.2675000,1.2675000,1.2675000,-0.0026439,0.0006441,-0.1086308,-0.0026439,-0.0010834,-0.0074086
1.2700000,1.2700000,1.2700000,-0.0026122,0.0006403,-0.1079810,-0.0026122,-0.0010640,-0.0073268
1.2725000,1.2725000,1.2725000,-0.0025809,0.0006365,-0.1073365,-0.0025809,-0.0010448,-0.0072461
1.2750000,1.2750000,1.2750000,-0.0025501,0.0006328,-0.1066971,-0.0025501,-0.0010260,-0.0071665
1.2775000,1.2775000,1.2775000,-0.0025196,0.0006290,-0.1060628,-0.0025196,-0.0010074,-0.0070880
1.2800000,1.2800000,1.2800000,-0.0024896,0.0006254,-0.1054335,-0.0024896,-0.0009891,-0.0070105
1.2825000,1.2825000,1.2825000,-0.0024601,0.0006217,-0.1048092,-0.0024601,-0.0009712,-0.0069341
1.2850000,1.2850000,1.2850000,-0.0024309,0.0006181,-0.1041899,-0.0024309,-0.0009535,-0.0068587
1.2875000,1.2875000,1.2875000,-0.0024021,0.0006145,-0.1035754,-0.0024021,-0.0009361,-0.0067843
1.2900000,1.2900000,1.2900000,-0.0023738,0.0006109,-0.1029658,-0.0023738,-0.0009189,-0.0067108
1.2925000,1.2925000,1.2925000,-0.0023458,0.0006073,-0.1023609,-0.0023458,-0.0009021,-0.0066384
1.2950000,1.2950000,1.2950000,-0.0023182,0.0006038,-0.1017609,-0.0023182,-0.0008855,-0.0065669
1.2975000,1.2975000,1.2975000,-0.0022910,0.0006003,-0.1011655,-0.0022910,-0.0008692,-0.0064963
1.3000000,1.3000000,1.3000000,-0.0022641,0.0005969,-0.1005747,-0.0022641,-0.0008531,-0.0064267
1.3025000,1.3025000,1.3025000,-0.0022377,0.0005934,-0.0999886,-0.0022377,-0.0008373,-0.0063580
1.3050000,1.3050000,1.3050000,-0.0022115,0.0005900,-0.0994070,-0.0022115,-0.0008217,-0.0062902
1.3075000,1.3075000,1.3075000,-0.0021858,0.0005866,-0.0988300,-0.0021858,-0.0008064,-0.0062233
1.3100000,1.3100000,1.3100000,-0.0021604,0.0005833,-0.0982574,-0.0021604,-0.0007913,-0.0061572
1.3125000,1.3125000,1.3125000,-0.0021353,0.0005799,-0.0976892,-0.0021353,-0.0007765,-0.0060920
1.3150000,1.3150000,1.3150000,-0.0021106,0.0005766,-0.0971255,-0.0021106,-0.0007618,-0.0060277
1.3175000,1.3175000,1.3175000,-0.0020862,0.0005734,-0.0965660,-0.0020862,-0.0007475,-0.0059642
1.3200000,1.3200000,1.3200000,-0.0020622,0.0005701,-0.0960109,-0.0020622,-0.0007333,-0.0059015
1.3225000,1.3225000,1.3225000,-0.0020384,0.0005669,-0.0954601,-0.0020384,-0.0007194,-0.0058396
1.3250000,1.3250000,1.3250000,-0.0020150,0.0005637,-0.0949134,-0.0020150,-0.0007057,-0.0057785
1.3275000,1.3275000,1.3275000,-0.0019919,0.0005605,-0.0943710,-0.0019919,-0.0006921,-0.0057182
1.3300000,1.3300000,1.3300000,-0.0019691,0.0005573,-0.0938326,-0.0019691,-0.0006789,-0.0056587
1.3325000,1.3325000,1.3325000,-0.0019466,0.0005542,-0.0932984,-0.0019466,-0.0006658,-0.0055999
1.3350000,1.3350000,1.3350000,-0.0019244,0.0005511,-0.0927683,-0.0019244,-0.0006529,-0.0055419
1.3375000,1.3375000,1.3375000,-0.0019025,0.0005480,-0.0922421,-0.0019025,-0.0006402,-0.0054846
1.3400000,1.3400000,1.3400000,-0.0018809,0.0005449,-0.0917200,-0.0018809,-0.0006277,-0.0054281
1.3425000,1.3425000,1.3425000,-0.0018596,0.0005419,-0.0912018,-0.0018596,-0.0006154,-0.0053722
1.3450000,1.3450000,1.3450000,-0.0018386,0.0005388,-0.0906875,-0.0018386,-0.0006033,-0.0053171
1.3475000,1.3475000,1.3475000,-0.0018178,0.0005358,-0.0901770,-0.0018178,-0.0005914,-0.0052627
1.3500000,1.3500000,1.3500000,-0.0017974,0.0005329,-0.0896705,-0.0017974,-0.0005797,-0.0052089
1.3525000,1.3525000,1.3525000,-0.0017771,0.0005299,-0.0891677,-0.0017771,-0.0005682,-0.0051559
1.3550000,1.3550000,1.3550000,-0.0017572,0.0005270,-0.0886686,-0.0017572,-0.0005568,-0.0051035
1.3575000,1.3575000,1.3575000,-0.0017375,0.0005241,-0.0881733,-0.0017375,-0.0005456,-0.0050517
1.3600000,1.3600000,1.3600000,-0.0017181,0.0005212,-0.0876817,-0.0017181,-0.0005346,-0.0050006
1.3625000,1.3625000,1.3625000,-0.0016989,0.0005183,-0.0871938,-0.0016989,-0.0005238,-0.0049501
1.3650000,1.3650000,1.3650000,-0.0016800,0.0005155,-0.0867095,-0.0016800,-0.0005131,-0.0049003
1.3675000,1.3675000,1.3675000,-0.0016613,0.0005126,-0.0862288,-0.0016613,-0.0005026,-0.0048511
1.3700000,1.3700000,1.3700000,-0.0016429,0.0005098,-0.0857516,-0.0016429,-0.0004922,-0.0048025
1.3725000,1.3725000,1.3725000,-0.0016247,0.0005070,-0.0852779,-0.0016247,-0.0004820,-0.0047545
1.3750000,1.3750000,1.3750000,-0.0016067,0.0005043,-0.0848078,-0.0016067,-0.0004720,-0.0047070
1.3775000,1.3775000,1.3775000,-0.0015890,0.0005015,-0.0843411,-0.0015890,-0.0004621,-0.0046602
1.3800000,1.3800000,1.3800000,-0.0015715,0.0004988,-0.0838778,-0.0015715,-0.0004524,-0.0046139
1.3825000,1.3825000,1.3825000,-0.0015542,0.0004961,-0.0834180,-0.0015542,-0.0004428,-0.0045682
1.3850000,1.3850000,1.3850000,-0.0015371,0.0004934,-0.0829615,-0.0015371,-0.0004334,-0.0045231
1.3875000,1.3875000,1.3875000,-0.0015203,0.0004907,-0.0825083,-0.0015203,-0.0004241,-0.0044785
1.3900000,1.3900000,1.3900000,-0.0015037,0.0004881,-0.0820584,-0.0015037,-0.0004150,-0.0044345
1.3925000,1.3925000,1.3925000,-0.0014873,0.0004855,-0.0816119,-0.0014873,-0.0004060,-0.0043910
1.3950000,1.3950000,1.3950000,-0.0014711,0.0004829,-0.0811685,-0.0014711,-0.0003971,-0.0043480
1.3975000,1.3975000,1.3975000,-0.0014551,0.0004803,-0.0807284,-0.0014551,-0.0003884,-0.0043055
1.4000000,1.4000000,1.4000000,-0.0014393,0.0004777,-0.0802915,-0.0014393,-0.0003798,-0.0042636
1.4025000,1.4025000,1.4025000,-0.0014237,0.0004751,-0.0798577,-0.0014237,-0.0003714,-0.0042221
1.4050000,1.4050000,1.4050000,-0.0014083,0.0004726,-0.0794270,-0.0014083,-0.0003631,-0.0041812
1.4075000,1.4075000,1.4075000,-0.0013931,0.0004701,-0.0789995,-0.0013931,-0.0003549,-0.0041407
1.4100000,1.4100000,1.4100000,-0.0013781,0.0004676,-0.0785750,-0.0013781,-0.0003468,-0.0041008
1.4125000,1.4125000,1.4125000,-0.0013633,0.0004651,-0.0781535,-0.0013633,-0.0003388,-0.0040613
1.4150000,1.4150000,1.4150000,-0.0013486,0.0004626,-0.0777351,-0.0013486,-0.0003310,-0.0040223
1.4175000,1.4175000,1.4175000,-0.0013342,0.0004602,-0.0773197,-0.0013342,-0.0003233,-0.0039837
1.4200000,1.4200000,1.4200000,-0.0013199,0.0004578,-0.0769072,-0.0013199,-0.0003157,-0.0039456
1.4225000,1.4225000,1.4225000,-0.0013058,0.0004554,-0.0764977,-0.0013058,-0.0003082,-0.0039080
1.4250000,1.4250000,1.4250000,-0.0012919,0.0004530,-0.0760911,-0.0012919,-0.0003009,-0.0038708
1.4275000,1.4275000,1.4275000,-0.0012782,0.0004506,-0.0756874,-0.0012782,-0.0002936,-0.0038340
1.4300000,1.4300000,1.4300000,-0.0012646,0.0004482,-0.0752865,-0.0012646,-0.0002865,-0.0037977
1.4325000,1.4325000,1.4325000,-0.0012512,0.0004459,-0.0748884,-0.0012512,-0.0002795,-0.0037618
1.4350000,1.4350000,1.4350000,-0.0012379,0.0004435,-0.0744932,-0.0012379,-0.0002726,-0.0037263
1.4375000,1.4375000,1.4375000,-0.0012249,0.0004412,-0.0741008,-0.0012249,-0.0002658,-0.0036912
1.4400000,1.4400000,1.4400000,-0.0012120,0.0004389,-0.0737111,-0.0012120,-0.0002591,-0.0036566
1.4425000,1.4425000,1.4425000,-0.0011992,0.0004367,-0.0733241,-0.0011992,-0.0002524,-0.0036223
1.4450000,1.4450000,1.4450000,-0.0011866,0.0004344,-0.0729399,-0.0011866,-0.0002459,-0.0035885
1.4475000,1.4475000,1.4475000,-0.0011742,0.0004321,-0.0725583,-0.0011742,-0.0002395,-0.0035550
1.4500000,1.4500000,1.4500000,-0.0011619,0.0004299,-0.0721794,-0.0011619,-0.0002332,-0.0035219
1.4525000,1.4525000,1.4525000,-0.0011497,0.0004277,-0.0718032,-0.0011497,-0.0002270,-0.0034892
1.4550000,1.4550000,1.4550000,-0.0011377,0.0004255,-0.0714296,-0.0011377,-0.0002209,-0.0034569
1.4575000,1.4575000,1.4575000,-0.0011259,0.0004233,-0.0710585,-0.0011259,-0.0002149,-0.0034250
1.4600000,1.4600000,1.4600000,-0.0011142,0.0004211,-0.0706901,-0.0011142,-0.0002090,-0.0033934
1.4625000,1.4625000,1.4625000,-0.0011026,0.0004190,-0.0703242,-0.0011026,-0.0002031,-0.0033622
1.4650000,1.4650000,1.4650000,-0.0010912,0.0004168,-0.0699608,-0.0010912,-0.0001974,-0.0033313
1.4675000,1.4675000,1.4675000,-0.0010799,0.0004147,-0.0695999,-0.0010799,-0.0001917,-0.0033008
1.4700000,1.4700000,1.4700000,-0.0010688,0.0004126,-0.0692415,-0.0010688,-0.0001861,-0.0032706
1.4725000,1.4725000,1.4725000,-0.0010578,0.0004105,-0.0688856,-0.0010578,-0.0001807,-0.0032408
1.4750000,1.4750000,1.4750000,-0.0010469,0.0004084,-0.0685321,-0.0010469,-0.0001753,-0.0032114
1.4775000,1.4775000,1.4775000,-0.0010361,0.0004063,-0.0681810,-0.0010361,-0.0001699,-0.0031822
1.4800000,1.4800000,1.4800000,-0.0010255,0.0004043,-0.0678323,-0.0010255,-0.0001647,-0.0031534
1.4825000,1.4825000,1.4825000,-0.0010150,0.0004022,-0.0674861,-0.0010150,-0.0001595,-0.0031249
1.4850000,1.4850000,1.4850000,-0.0010046,0.0004002,-0.0671421,-0.0010046,-0.0001545,-0.0030967
1.4875000,1.4875000,1.4875000,-0.0009944,0.0003982,-0.0668005,-0.0009944,-0.0001495,-0.0030689
1.4900000,1.4900000,1.4900000,-0.0009843,0.0003962,-0.0664613,-0.0009843,-0.0001445,-0.0030414
1.4925000,1.4925000,1.4925000,-0.0009743,0.0003942,-0.0661243,-0.0009743,-0.0001397,-0.0030141
1.4950000,1.4950000,1.4950000,-0.0009644,0.0003922,-0.0657896,-0.0009644,-0.0001349,-0.0029872
1.4975000,1.4975000,1.4975000,-0.0009546,0.0003902,-0.0654572,-0.0009546,-0.0001302,-0.0029606
1.5000000,1.5000000,1.5000000,-0.0009450,0.0003883,-0.0651270,-0.0009450,-0.0001256,-0.0029343
1.5025000,1.5025000,1.5025000,-0.0009354,0.0003863,-0.0647990,-0.0009354,-0.0001210,-0.0029082
1.5050000,1.5050000,1.5050000,-0.0009260,0.0003844,-0.0644733,-0.0009260,-0.0001165,-0.0028825
1.5075000,1.5075000,1.5075000,-0.0009167,0.0003825,-0.0641497,-0.0009167,-0.0001121,-0.0028570
1.5100000,1.5100000,1.5100000,-0.0009075,0.0003806,-0.0638283,-0.0009075,-0.0001077,-0.0028318
1.5125000,1.5125000,1.5125000,-0.0008984,0.0003787,-0.0635090,-0.0008984,-0.0001035,-0.0028069
1.5150000,1.5150000,1.5150000,-0.0008894,0.0003768,-0.0631919,-0.0008894,-0.0000992,-0.0027823
1.5175000,1.5175000,1.5175000,-0.0008805,0.0003750,-0.0628769,-0.0008805,-0.0000951,-0.0027579
1.5200000,1.5200000,1.5200000,-0.0008717,0.0003731,-0.0625640,-0.0008717,-0.0000910,-0.0027338
1.5225000,1.5225000,1.5225000,-0.0008631,0.0003713,-0.0622531,-0.0008631,-0.0000870,-0.0027100
1.5250000,1.5250000,1.5250000,-0.0008545,0.0003695,-0.0619443,-0.0008545,-0.0000830,-0.0026864
1.5275000,1.5275000,1.5275000,-0.0008460,0.0003677,-0.0616376,-0.0008460,-0.0000791,-0.0026631
1.5300000,1.5300000,1.5300000,-0.0008376,0.0003659,-0.0613329,-0.0008376,-0.0000752,-0.0026400
1.5325000,1.5325000,1.5325000,-0.0008293,0.0003641,-0.0610302,-0.0008293,-0.0000715,-0.0026172
1.5350000,1.5350000,1.5350000,-0.0008212,0.0003623,-0.0607295,-0.0008212,-0.0000677,-0.0025947
1.5375000,1.5375000,1.5375000,-0.0008131,0.0003605,-0.0604308,-0.0008131,-0.0000641,-0.0025723
1.5400000,1.5400000,1.5400000,-0.0008051,0.0003588,-0.0601340,-0.0008051,-0.0000604,-0.0025503
1.5425000,1.5425000,1.5425000,-0.0007971,0.0003570,-0.0598392,-0.0007971,-0.0000569,-0.0025284
1.5450000,1.5450000,1.5450000,-0.0007893,0.0003553,-0.0595463,-0.0007893,-0.0000534,-0.0025068
1.5475000,1.5475000,1.5475000,-0.0007816,0.0003536,-0.0592553,-0.0007816,-0.0000499,-0.0024854
1.5500000,1.5500000,1.5500000,-0.0007740,0.0003519,-0.0589662,-0.0007740,-0.0000465,-0.0024643
1.5525000,1.5525000,1.5525000,-0.0007664,0.0003502,-0.0586790,-0.0007664,-0.0000432,-0.0024434
1.5550000,1.5550000,1.5550000,-0.0007589,0.0003485,-0.0583937,-0.0007589,-0.0000399,-0.0024227
1.5575000,1.5575000,1.5575000,-0.0007516,0.0003468,-0.0581102,-0.0007516,-0.0000367,-0.0024022
1.5600000,1.5600000,1.5600000,-0.0007443,0.0003451,-0.0578286,-0.0007443,-0.0000335,-0.0023819
1.5625000,1.5625000,1.5625000,-0.0007370,0.0003435,-0.0575487,-0.0007370,-0.0000303,-0.0023619
1.5650000,1.5650000,1.5650000,-0.0007299,0.0003418,-0.0572707,-0.0007299,-0.0000273,-0.0023421
1.5675000,1.5675000,1.5675000,-0.0007229,0.0003402,-0.0569945,-0.0007229,-0.0000242,-0.0023224
1.5700000,1.5700000,1.5700000,-0.0007159,0.0003386,-0.0567200,-0.0007159,-0.0000212,-0.0023030
1.5725000,1.5725000,1.5725000,-0.0007090,0.0003370,-0.0564474,-0.0007090,-0.0000183,-0.0022838
1.5750000,1.5750000,1.5750000,-0.0007022,0.0003354,-0.0561764,-0.0007022,-0.0000154,-0.0022648
1.5775000,1.5775000,1.5775000,-0.0006954,0.0003338,-0.0559072,-0.0006954,-0.0000125,-0.0022460
1.5800000,1.5800000,1.5800000,-0.0006888,0.0003322,-0.0556398,-0.0006888,-0.0000097,-0.0022273
1.5825000,1.5825000,1.5825000,-0.0006822,0.0003306,-0.0553740,-0.0006822,-0.0000069,-0.0022089
1.5850000,1.5850000,1.5850000,-0.0006756,0.0003290,-0.0551099,-0.0006756,-0.0000042,-0.0021907
1.5875000,1.5875000,1.5875000,-0.0006692,0.0003275,-0.0548475,-0.0006692,-0.0000015,-0.0021726
1.5900000,1.5900000,1.5900000,-0.0006628,0.0003259,-0.0545868,-0.0006628,0.0000011,-0.0021548
1.5925000,1.5925000,1.5925000,-0.0006565,0.0003244,-0.0543277,-0.0006565,0.0000037,-0.0021371
1.5950000,1.5950000,1.5950000,-0.0006503,0.0003229,-0.0540703,-0.0006503,0.0000063,-0.0021196
1.5975000,1.5975000,1.5975000,-0.0006441,0.0003214,-0.0538145,-0.0006441,0.0000088,-0.0021023
