# r[nm],d[nm],daligned[nm],U(d)[kj/mol],V(d)[e/nm],Uslab(d)[kJ/mol],UC(d)[kJ/mol],UK(d)[kJ/mol],UCl(d)[kJ/mol]
0.1850000,0.1850000,0.1850000,1641.9731116,-0.5499577,143.6435382,1641.9731116,1040.1051320,inf
0.1875000,0.1875000,0.1875000,1426.9542481,-0.5377137,125.6198247,1426.9542481,903.3319071,inf
0.1900000,0.1900000,0.1900000,1241.7339361,-0.5257991,109.9632587,1241.7339361,785.5791416,inf
0.1925000,0.1925000,0.1925000,1081.9643239,-0.5142036,96.3461837,1081.9643239,684.0664026,inf
0.1950000,0.1950000,0.1950000,943.9635438,-0.5029176,84.4893347,943.9635438,596.4389167,inf
0.1975000,0.1975000,0.1975000,824.6089236,-0.4919314,74.1542182,824.6089236,520.6991508,inf
0.2000000,0.2000000,0.2000000,721.2479374,-0.4812358,65.1367664,721.2479374,455.1499947,inf
0.2025000,0.2025000,0.2025000,631.6238552,-0.4708214,57.2620413,631.6238552,398.3476169,inf
0.2050000,0.2050000,0.2050000,553.8136519,-0.4606791,50.3798042,553.8136519,349.0623047,inf
0.2075000,0.2075000,0.2075000,486.1761930,-0.4507997,44.3608003,486.1761930,306.2457894,inf
0.2100000,0.2100000,0.2100000,427.3090294,-0.4411743,39.0936382,427.3090294,269.0037768,1779.4691434
0.2125000,0.2125000,0.2125000,376.0123414,-0.4317941,34.4821613,376.0123414,236.5726663,1567.2384550
0.2150000,0.2150000,0.2150000,331.2587332,-0.4226512,30.4432305,331.2587332,208.2997101,1381.8254791
0.2175000,0.2175000,0.2175000,292.1677609,-0.4137382,26.9048496,292.1677609,183.6260938,1219.6504236
0.2200000,0.2200000,0.2200000,257.9842868,-0.4050486,23.8045754,257.9842868,162.0725595,1077.6371414
0.2225000,0.2225000,0.2225000,228.0599782,-0.3965764,21.0881617,228.0599782,143.2272560,953.1386408
0.2250000,0.2250000,0.2250000,201.8374673,-0.3883164,18.7083817,201.8374673,126.7355237,843.8740587
0.2275000,0.2275000,0.2275000,178.8368199,-0.3802631,16.6239661,178.8368199,112.2913311,747.8752715
0.2300000,0.2300000,0.2300000,158.6440320,-0.3724111,14.7985899,158.6440320,99.6300988,663.4416508
0.2325000,0.2325000,0.2325000,140.9012934,-0.3647546,13.1998769,140.9012934,88.5226802,589.1017360
0.2350000,0.2350000,0.2350000,125.2987731,-0.3572870,11.7984554,125.2987731,78.7703017,523.5807814
0.2375000,0.2375000,0.2375000,111.5676921,-0.3500008,10.5671906,111.5676921,70.2003025,465.7732651
0.2400000,0.2400000,0.2400000,99.4744759,-0.3428877,9.4807587,99.4744759,62.6625405,414.7195482
0.2425000,0.2425000,0.2425000,88.8158072,-0.3359379,8.5156880,88.8158072,56.0263592,369.5859653
0.2450000,0.2450000,0.2450000,79.4144319,-0.3291403,7.6508452,79.4144319,50.1780210,329.6477412
0.2475000,0.2475000,0.2475000,71.1155986,-0.3224829,6.8681544,71.1155986,45.0185297,294.2742472
0.2500000,0.2500000,0.2500000,63.7840326,-0.3159525,6.1531992,63.7840326,40.4617686,262.9162306
0.2525000,0.2525000,0.2525000,57.3013678,-0.3095357,5.4953857,57.3013678,36.4328934,235.0947496
0.2550000,0.2550000,0.2550000,51.5639658,-0.3032195,4.8875471,51.5639658,32.8669241,210.3916059
0.2575000,0.2575000,0.2575000,46.4810663,-0.2969919,4.3251326,46.4810663,29.7074938,188.4411040
0.2600000,0.2600000,0.2600000,41.9732124,-0.2908433,3.8052653,41.9732124,26.9057200,168.9229789
0.2625000,0.2625000,0.2625000,37.9709023,-0.2847675,3.3259298,37.9709023,24.4191711,151.5563378
0.2650000,0.2650000,0.2650000,34.4134196,-0.2787618,2.8854163,34.4134196,22.2109079,136.0944750
0.2675000,0.2675000,0.2675000,31.2477985,-0.2728279,2.4820106,31.2477985,20.2485900,122.3204244
0.2700000,0.2700000,0.2700000,28.4278885,-0.2669705,2.1138418,28.4278885,18.5036555,110.0431374
0.2725000,0.2725000,0.2725000,25.9134850,-0.2611968,1.7787911,25.9134850,16.9506058,99.0941836
0.2750000,0.2750000,0.2750000,23.6695045,-0.2555138,1.4744045,23.6695045,15.5664402,89.3248957
0.2775000,0.2775000,0.2775000,21.6651946,-0.2499262,1.1978124,21.6651946,14.3302784,80.6038897
0.2800000,0.2800000,0.2800000,19.8733929,-0.2444337,0.9457118,19.8733929,13.2231798,72.8149079
0.2825000,0.2825000,0.2825000,18.2698676,-0.2390294,0.7144891,18.2698676,12.2281260,65.8549418
0.2850000,0.2850000,0.2850000,16.8327872,-0.2337004,0.5005116,16.8327872,11.3300946,59.6326000
0.2875000,0.2875000,0.2875000,15.5423558,-0.2284295,0.3005278,15.5423558,10.5161366,54.0666920
0.2900000,0.2900000,0.2900000,14.3806250,-0.2231982,0.1120294,14.3806250,9.7753793,49.0850063
0.2925000,0.2925000,0.2925000,13.3314534,-0.2179908,-0.0665780,13.3314534,9.0989152,44.6232591
0.2950000,0.2950000,0.2950000,12.3805504,-0.2127966,-0.2360574,12.3805504,8.4795768,40.6241967
0.2975000,0.2975000,0.2975000,11.5155293,-0.2076114,-0.3966121,11.5155293,7.9116357,37.0368319
0.3000000,0.3000000,0.3000000,10.7258993,-0.2024369,-0.5482065,10.7258993,7.3904766,33.8157920
0.3025000,0.3025000,0.3025000,10.0029616,-0.1972786,-0.6908113,10.0029616,6.9122911,30.9207546
0.3050000,0.3050000,0.3050000,9.3396097,-0.1921446,-0.8245242,9.3396097,6.4738211,28.3159423
0.3075000,0.3075000,0.3075000,8.7300644,-0.1870436,-0.9495906,8.7300644,6.0721622,25.9696481
0.3100000,0.3100000,0.3100000,8.1695869,-0.1819851,-1.0663805,8.1695869,5.7046232,23.8537707
0.3125000,0.3125000,0.3125000,7.6542099,-0.1769793,-1.1753682,7.6542099,5.3686305,21.9433533
0.3150000,0.3150000,0.3150000,7.1805087,-0.1720377,-1.2771240,7.1805087,5.0616664,20.2161397
0.3175000,0.3175000,0.3175000,6.7454245,-0.1671733,-1.3723081,6.7454245,4.7812319,18.6521789
0.3200000,0.3200000,0.3200000,6.3461335,-0.1623998,-1.4616497,6.3461335,4.5248304,17.2335092
0.3225000,0.3225000,0.3225000,5.9799544,-0.1577304,-1.5459013,5.9799544,4.2899699,15.9439453
0.3250000,0.3250000,0.3250000,5.6442855,-0.1531767,-1.6257749,5.6442855,4.0741829,14.7689655
0.3275000,0.3275000,0.3275000,5.3365628,-0.1487463,-1.7018758,5.3365628,3.8750609,13.6956699
0.3300000,0.3300000,0.3300000,5.0542384,-0.1444423,-1.7746560,5.0542384,3.6902989,12.7127663
0.3325000,0.3325000,0.3325000,4.7947774,-0.1402615,-1.8443992,4.7947774,3.5177446,11.8105348
0.3350000,0.3350000,0.3350000,4.5556715,-0.1361948,-1.9112353,4.5556715,3.3554470,10.9807405
0.3375000,0.3375000,0.3375000,4.3344695,-0.1322269,-1.9751664,4.3344695,3.2016986,10.2164826
0.3400000,0.3400000,0.3400000,4.1288186,-0.1283375,-2.0360933,4.1288186,3.0550686,9.5119941
0.3425000,0.3425000,0.3425000,3.9365120,-0.1245019,-2.0938346,3.9365120,2.9144249,8.8624195
0.3450000,0.3450000,0.3450000,3.7555360,-0.1206934,-2.1481445,3.7555360,2.7789386,8.2635974
0.3475000,0.3475000,0.3475000,3.5841103,-0.1168840,-2.1987322,3.5841103,2.6480694,7.7118723
0.3500000,0.3500000,0.3500000,3.4207192,-0.1130477,-2.2452901,3.4207192,2.5215244,7.2039427
0.3525000,0.3525000,0.3525000,3.2641303,-0.1091625,-2.2875356,3.2641303,2.3991923,6.7367483
0.3550000,0.3550000,0.3550000,3.1133987,-0.1052135,-2.3252908,3.1133987,2.2810615,6.3073876
0.3575000,0.3575000,0.3575000,2.9678553,-0.1011943,-2.3586171,2.9678553,2.1671392,5.9130588
0.3600000,0.3600000,0.3600000,2.8270724,-0.0971085,-2.3879952,2.8270724,2.0573916,5.5510183
0.3625000,0.3625000,0.3625000,2.6908090,-0.0929683,-2.4144704,2.6908090,1.9517170,5.2185531
0.3650000,0.3650000,0.3650000,2.5589412,-0.0887925,-2.4396562,2.5589412,1.8499542,4.9129687
0.3675000,0.3675000,0.3675000,2.4313923,-0.0846032,-2.4655307,2.4313923,1.7519108,4.6315935
0.3700000,0.3700000,0.3700000,2.3080796,-0.0804234,-2.4940634,2.3080796,1.6573980,4.3718023
0.3725000,0.3725000,0.3725000,2.1888893,-0.0762756,-2.5268044,2.1888893,1.5662603,4.1310557
0.3750000,0.3750000,0.3750000,2.0736794,-0.0721812,-2.5645819,2.0736794,1.4783964,3.9069502
0.3775000,0.3775000,0.3775000,1.9623010,-0.0681603,-2.6073993,1.9623010,1.3937714,3.6972701
0.3800000,0.3800000,0.3800000,1.8546242,-0.0642325,-2.6545299,1.8546242,1.3124218,3.5000318
0.3825000,0.3825000,0.3825000,1.7505615,-0.0604161,-2.7047390,1.7505615,1.2344498,3.3135113
0.3850000,0.3850000,0.3850000,1.6500826,-0.0567288,-2.7565398,1.6500826,1.1600098,3.1362539
0.3875000,0.3875000,0.3875000,1.5532221,-0.0531870,-2.8084124,1.5532221,1.0892847,2.9670651
0.3900000,0.3900000,0.3900000,1.4600777,-0.0498057,-2.8589552,1.4600777,1.0224588,2.8049865
0.3925000,0.3925000,0.3925000,1.3708007,-0.0465977,-2.9069713,1.3708007,0.9596905,2.6492605
0.3950000,0.3950000,0.3950000,1.2855788,-0.0435736,-2.9515079,1.2855788,0.9010874,2.4992874
0.3975000,0.3975000,0.3975000,1.2046122,-0.0407404,-2.9918686,1.2046122,0.8466869,2.3545822
0.4000000,0.4000000,0.4000000,1.1280895,-0.0381017,-3.0276074,1.1280895,0.7964395,2.2147377
0.4025000,0.4025000,0.4025000,1.0561633,-0.0356571,-3.0585101,1.0561633,0.7501915,2.0794013
0.4050000,0.4050000,0.4050000,0.9889306,-0.0334025,-3.0845640,0.9889306,0.7076591,1.9482671
0.4075000,0.4075000,0.4075000,0.9264160,-0.0313302,-3.1059177,0.9264160,0.6683903,1.8210818
0.4100000,0.4100000,0.4100000,0.8685577,-0.0294296,-3.1228350,0.8685577,0.6317248,1.6976579
0.4125000,0.4125000,0.4125000,0.8151898,-0.0276869,-3.1356444,0.8151898,0.5967720,1.5778875
0.4150000,0.4150000,0.4150000,0.7660166,-0.0260846,-3.1446913,0.7660166,0.5624378,1.4617505
0.4175000,0.4175000,0.4175000,0.7205764,-0.0246008,-3.1502994,0.7205764,0.5275140,1.3493158
0.4200000,0.4200000,0.4200000,0.6782038,-0.0232081,-3.1527467,0.6782038,0.4908257,1.2407324
0.4225000,0.4225000,0.4225000,0.6380108,-0.0218731,-3.1522587,0.6380108,0.4514008,1.1362126
0.4250000,0.4250000,0.4250000,0.5989104,-0.0205583,-3.1490149,0.5989104,0.4086176,1.0360088
0.4275000,0.4275000,0.4275000,0.5596986,-0.0192252,-3.1431595,0.5596986,0.3622902,0.9403873
0.4300000,0.4300000,0.4300000,0.5191870,-0.0178400,-3.1348128,0.5191870,0.3126734,0.8496024
0.4325000,0.4325000,0.4325000,0.4763608,-0.0163781,-3.1240782,0.4763608,0.2603930,0.7638740
0.4350000,0.4350000,0.4350000,0.4305210,-0.0148288,-3.1110472,0.4305210,0.2063274,0.6833703
0.4375000,0.4375000,0.4375000,0.3813749,-0.0131965,-3.0958029,0.3813749,0.1514734,0.6081953
0.4400000,0.4400000,0.4400000,0.3290553,-0.0114992,-3.0784247,0.3290553,0.0968219,0.5383799
0.4425000,0.4425000,0.4425000,0.2740704,-0.0097647,-3.0589926,0.2740704,0.0432619,0.4738713
0.4450000,0.4450000,0.4450000,0.2172026,-0.0080256,-3.0375921,0.2172026,-0.0084836,0.4145193
0.4475000,0.4475000,0.4475000,0.1593853,-0.0063148,-3.0143183,0.1593853,-0.0578884,0.3600525
0.4500000,0.4500000,0.4500000,0.1015828,-0.0046612,-2.9892775,0.1015828,-0.1046277,0.3100489
0.4525000,0.4525000,0.4525000,0.0446905,-0.0030876,-2.9625881,0.0446905,-0.1485607,0.2639073
0.4550000,0.4550000,0.4550000,-0.0105353,-0.0016099,-2.9343793,-0.0105353,-0.1896964,0.2208341
0.4575000,0.4575000,0.4575000,-0.0635178,-0.0002368,-2.9047889,-0.0635178,-0.2281489,0.1798600
0.4600000,0.4600000,0.4600000,-0.1138721,0.0010291,-2.8739601,-0.1138721,-0.2640910,0.1398976
0.4625000,0.4625000,0.4625000,-0.1613946,0.0021901,-2.8420388,-0.1613946,-0.2977108,0.0998354
0.4650000,0.4650000,0.4650000,-0.2060341,0.0032517,-2.8091702,-0.2060341,-0.3291791,0.0586547
0.4675000,0.4675000,0.4675000,-0.2478524,0.0042213,-2.7754964,-0.2478524,-0.3586282,0.0155450
0.4700000,0.4700000,0.4700000,-0.2869814,0.0051071,-2.7411543,-0.2869814,-0.3861437,-0.0300067
0.4725000,0.4725000,0.4725000,-0.3235824,0.0059168,-2.7062735,-0.3235824,-0.4117644,-0.0781714
0.4750000,0.4750000,0.4750000,-0.3578139,0.0066573,-2.6709758,-0.3578139,-0.4354899,-0.1287835
0.4775000,0.4775000,0.4775000,-0.3898101,0.0073343,-2.6353738,-0.3898101,-0.4572919,-0.1813909
0.4800000,0.4800000,0.4800000,-0.4196690,0.0079524,-2.5995710,-0.4196690,-0.4771260,-0.2353357
0.4825000,0.4825000,0.4825000,-0.4474506,0.0085152,-2.5636614,-0.4474506,-0.4949445,-0.2898476
0.4850000,0.4850000,0.4850000,-0.4731795,0.0090253,-2.5277301,-0.4731795,-0.5107076,-0.3441338
0.4875000,0.4875000,0.4875000,-0.4968537,0.0094850,-2.4918532,-0.4968537,-0.5243928,-0.3974550
0.4900000,0.4900000,0.4900000,-0.5184535,0.0098961,-2.4560983,-0.5184535,-0.5360038,-0.4491796
0.4925000,0.4925000,0.4925000,-0.5379525,0.0102602,-2.4205254,-0.5379525,-0.5455772,-0.4988152
0.4950000,0.4950000,0.4950000,-0.5553273,0.0105790,-2.3851871,-0.5553273,-0.5531853,-0.5460177
0.4975000,0.4975000,0.4975000,-0.5705671,0.0108543,-2.3501291,-0.5705671,-0.5589351,-0.5905825
0.5000000,0.5000000,0.5000000,-0.5836827,0.0110884,-2.3153914,-0.5836827,-0.5629609,-0.6324228
0.5025000,0.5025000,0.5025000,-0.5947128,0.0112837,-2.2810080,-0.5947128,-0.5654134,-0.6715411
0.5050000,0.5050000,0.5050000,-0.6037273,0.0114433,-2.2470080,-0.6037273,-0.5664478,-0.7079983
0.5075000,0.5075000,0.5075000,-0.6108259,0.0115705,-2.2134162,-0.6108259,-0.5662119,-0.7418869
0.5100000,0.5100000,0.5100000,-0.6161321,0.0116688,-2.1802529,-0.6161321,-0.5648394,-0.7733081
0.5125000,0.5125000,0.5125000,-0.6197841,0.0117416,-2.1475353,-0.6197841,-0.5624458,-0.8023563
0.5150000,0.5150000,0.5150000,-0.6219243,0.0117921,-2.1152768,-0.6219243,-0.5591285,-0.8291099
0.5175000,0.5175000,0.5175000,-0.6226904,0.0118229,-2.0834885,-0.6226904,-0.5549702,-0.8536268
0.5200000,0.5200000,0.5200000,-0.6222089,0.0118361,-2.0521786,-0.6222089,-0.5500416,-0.8759455
0.5225000,0.5225000,0.5225000,-0.6205920,0.0118334,-2.0213531,-0.6205920,-0.5444065,-0.8960879
0.5250000,0.5250000,0.5250000,-0.6179379,0.0118162,-1.9910163,-0.6179379,-0.5381241,-0.9140654
0.5275000,0.5275000,0.5275000,-0.6143320,0.0117852,-1.9611703,-0.6143320,-0.5312517,-0.9298858
0.5300000,0.5300000,0.5300000,-0.6098503,0.0117413,-1.9318162,-0.6098503,-0.5238463,-0.9435609
0.5325000,0.5325000,0.5325000,-0.6045623,0.0116853,-1.9029534,-0.6045623,-0.5159645,-0.9551139
0.5350000,0.5350000,0.5350000,-0.5985332,0.0116177,-1.8745804,-0.5985332,-0.5076631,-0.9645845
0.5375000,0.5375000,0.5375000,-0.5918265,0.0115393,-1.8466945,-0.5918265,-0.4989983,-0.9720313
0.5400000,0.5400000,0.5400000,-0.5845046,0.0114510,-1.8192923,-0.5845046,-0.4900251,-0.9775322
0.5425000,0.5425000,0.5425000,-0.5766294,0.0113535,-1.7923695,-0.5766294,-0.4807968,-0.9811802
0.5450000,0.5450000,0.5450000,-0.5682623,0.0112478,-1.7659214,-0.5682623,-0.4713642,-0.9830792
0.5475000,0.5475000,0.5475000,-0.5594640,0.0111347,-1.7399426,-0.5594640,-0.4617750,-0.9833379
0.5500000,0.5500000,0.5500000,-0.5502937,0.0110153,-1.7144272,-0.5502937,-0.4520739,-0.9820653
0.5525000,0.5525000,0.5525000,-0.5408085,0.0108903,-1.6893692,-0.5408085,-0.4423019,-0.9793668
0.5550000,0.5550000,0.5550000,-0.5310633,0.0107608,-1.6647618,-0.5310633,-0.4324963,-0.9753422
0.5575000,0.5575000,0.5575000,-0.5211096,0.0106275,-1.6405985,-0.5211096,-0.4226909,-0.9700850
0.5600000,0.5600000,0.5600000,-0.5109960,0.0104912,-1.6168722,-0.5109960,-0.4129158,-0.9636830
0.5625000,0.5625000,0.5625000,-0.5007672,0.0103526,-1.5935758,-0.5007672,-0.4031977,-0.9562189
0.5650000,0.5650000,0.5650000,-0.4904643,0.0102124,-1.5707021,-0.4904643,-0.3935599,-0.9477723
0.5675000,0.5675000,0.5675000,-0.4801246,0.0100712,-1.5482437,-0.4801246,-0.3840228,-0.9384200
0.5700000,0.5700000,0.5700000,-0.4697820,0.0099295,-1.5261932,-0.4697820,-0.3746039,-0.9282373
0.5725000,0.5725000,0.5725000,-0.4594664,0.0097877,-1.5045433,-0.4594664,-0.3653181,-0.9172983
0.5750000,0.5750000,0.5750000,-0.4492047,0.0096462,-1.4832865,-0.4492047,-0.3561780,-0.9056764
0.5775000,0.5775000,0.5775000,-0.4390204,0.0095055,-1.4624155,-0.4390204,-0.3471939,-0.8934437
0.5800000,0.5800000,0.5800000,-0.4289339,0.0093657,-1.4419228,-0.4289339,-0.3383744,-0.8806710
0.5825000,0.5825000,0.5825000,-0.4189631,0.0092273,-1.4218012,-0.4189631,-0.3297262,-0.8674274
0.5850000,0.5850000,0.5850000,-0.4091232,0.0090903,-1.4020434,-0.4091232,-0.3212547,-0.8537796
0.5875000,0.5875000,0.5875000,-0.3994271,0.0089549,-1.3826422,-0.3994271,-0.3129639,-0.8397917
0.5900000,0.5900000,0.5900000,-0.3898856,0.0088214,-1.3635905,-0.3898856,-0.3048564,-0.8255245
0.5925000,0.5925000,0.5925000,-0.3805078,0.0086898,-1.3448813,-0.3805078,-0.2969340,-0.8110357
0.5950000,0.5950000,0.5950000,-0.3713009,0.0085602,-1.3265077,-0.3713009,-0.2891976,-0.7963790
0.5975000,0.5975000,0.5975000,-0.3622706,0.0084327,-1.3084628,-0.3622706,-0.2816472,-0.7816044
0.6000000,0.6000000,0.6000000,-0.3534215,0.0083073,-1.2907401,-0.3534215,-0.2742823,-0.7667579
0.6025000,0.6025000,0.6025000,-0.3447567,0.0081841,-1.2733328,-0.3447567,-0.2671015,-0.7518819
0.6050000,0.6050000,0.6050000,-0.3362785,0.0080632,-1.2562345,-0.3362785,-0.2601033,-0.7370147
0.6075000,0.6075000,0.6075000,-0.3279882,0.0079444,-1.2394389,-0.3279882,-0.2532856,-0.7221908
0.6100000,0.6100000,0.6100000,-0.3198863,0.0078279,-1.2229396,-0.3198863,-0.2466459,-0.7074415
0.6125000,0.6125000,0.6125000,-0.3119727,0.0077136,-1.2067306,-0.3119727,-0.2401814,-0.6927943
0.6150000,0.6150000,0.6150000,-0.3042464,0.0076015,-1.1908058,-0.3042464,-0.2338892,-0.6782739
0.6175000,0.6175000,0.6175000,-0.2967064,0.0074915,-1.1751593,-0.2967064,-0.2277660,-0.6639017
0.6200000,0.6200000,0.6200000,-0.2893507,0.0073838,-1.1597855,-0.2893507,-0.2218087,-0.6496966
0.6225000,0.6225000,0.6225000,-0.2821773,0.0072781,-1.1446785,-0.2821773,-0.2160136,-0.6356747
0.6250000,0.6250000,0.6250000,-0.2751838,0.0071746,-1.1298329,-0.2751838,-0.2103773,-0.6218500
0.6275000,0.6275000,0.6275000,-0.2683674,0.0070731,-1.1152433,-0.2683674,-0.2048961,-0.6082343
0.6300000,0.6300000,0.6300000,-0.2617252,0.0069737,-1.1009043,-0.2617252,-0.1995664,-0.5948374
0.6325000,0.6325000,0.6325000,-0.2552542,0.0068762,-1.0868109,-0.2552542,-0.1943845,-0.5816674
0.6350000,0.6350000,0.6350000,-0.2489510,0.0067807,-1.0729577,-0.2489510,-0.1893467,-0.5687308
0.6375000,0.6375000,0.6375000,-0.2428122,0.0066871,-1.0593401,-0.2428122,-0.1844494,-0.5560327
0.6400000,0.6400000,0.6400000,-0.2368346,0.0065953,-1.0459529,-0.2368346,-0.1796888,-0.5435769
0.6425000,0.6425000,0.6425000,-0.2310144,0.0065054,-1.0327916,-0.2310144,-0.1750613,-0.5313662
0.6450000,0.6450000,0.6450000,-0.2253483,0.0064173,-1.0198515,-0.2253483,-0.1705635,-0.5194022
0.6475000,0.6475000,0.6475000,-0.2198325,0.0063309,-1.0071280,-0.2198325,-0.1661916,-0.5076857
0.6500000,0.6500000,0.6500000,-0.2144635,0.0062462,-0.9946167,-0.2144635,-0.1619423,-0.4962168
0.6525000,0.6525000,0.6525000,-0.2092377,0.0061631,-0.9823133,-0.2092377,-0.1578121,-0.4849948
0.6550000,0.6550000,0.6550000,-0.2041516,0.0060817,-0.9702135,-0.2041516,-0.1537977,-0.4740184
0.6575000,0.6575000,0.6575000,-0.1992015,0.0060018,-0.9583133,-0.1992015,-0.1498958,-0.4632858
0.6600000,0.6600000,0.6600000,-0.1943841,0.0059235,-0.9466084,-0.1943841,-0.1461032,-0.4527947
0.6625000,0.6625000,0.6625000,-0.1896958,0.0058467,-0.9350951,-0.1896958,-0.1424167,-0.4425425
0.6650000,0.6650000,0.6650000,-0.1851332,0.0057714,-0.9237694,-0.1851332,-0.1388332,-0.4325262
0.6675000,0.6675000,0.6675000,-0.1806930,0.0056975,-0.9126275,-0.1806930,-0.1353497,-0.4227426
0.6700000,0.6700000,0.6700000,-0.1763718,0.0056249,-0.9016658,-0.1763718,-0.1319634,-0.4131880
0.6725000,0.6725000,0.6725000,-0.1721665,0.0055538,-0.8908807,-0.1721665,-0.1286714,-0.4038589
0.6750000,0.6750000,0.6750000,-0.1680738,0.0054839,-0.8802686,-0.1680738,-0.1254709,-0.3947512
0.6775000,0.6775000,0.6775000,-0.1640906,0.0054154,-0.8698261,-0.1640906,-0.1223591,-0.3858611
0.6800000,0.6800000,0.6800000,-0.1602140,0.0053481,-0.8595499,-0.1602140,-0.1193336,-0.3771843
0.6825000,0.6825000,0.6825000,-0.1564409,0.0052820,-0.8494366,-0.1564409,-0.1163916,-0.3687166
0.6850000,0.6850000,0.6850000,-0.1527684,0.0052171,-0.8394831,-0.1527684,-0.1135309,-0.3604539
0.6875000,0.6875000,0.6875000,-0.1491937,0.0051534,-0.8296861,-0.1491937,-0.1107488,-0.3523918
0.6900000,0.6900000,0.6900000,-0.1457141,0.0050908,-0.8200427,-0.1457141,-0.1080432,-0.3445260
0.6925000,0.6925000,0.6925000,-0.1423268,0.0050294,-0.8105499,-0.1423268,-0.1054117,-0.3368522
0.6950000,0.6950000,0.6950000,-0.1390292,0.0049690,-0.8012047,-0.1390292,-0.1028521,-0.3293661
0.6975000,0.6975000,0.6975000,-0.1358188,0.0049097,-0.7920042,-0.1358188,-0.1003623,-0.3220633
0.7000000,0.7000000,0.7000000,-0.1326931,0.0048514,-0.7829458,-0.1326931,-0.0979402,-0.3149397
0.7025000,0.7025000,0.7025000,-0.1296497,0.0047941,-0.7740265,-0.1296497,-0.0955838,-0.3079910
0.7050000,0.7050000,0.7050000,-0.1266863,0.0047378,-0.7652438,-0.1266863,-0.0932912,-0.3012130
0.7075000,0.7075000,0.7075000,-0.1238005,0.0046825,-0.7565951,-0.1238005,-0.0910604,-0.2946016
0.7100000,0.7100000,0.7100000,-0.1209901,0.0046281,-0.7480777,-0.1209901,-0.0888897,-0.2881527
0.7125000,0.7125000,0.7125000,-0.1182531,0.0045746,-0.7396893,-0.1182531,-0.0867772,-0.2818624
0.7150000,0.7150000,0.7150000,-0.1155872,0.0045220,-0.7314273,-0.1155872,-0.0847213,-0.2757266
0.7175000,0.7175000,0.7175000,-0.1129905,0.0044703,-0.7232895,-0.1129905,-0.0827202,-0.2697416
0.7200000,0.7200000,0.7200000,-0.1104609,0.0044195,-0.7152733,-0.1104609,-0.0807724,-0.2639035
0.7225000,0.7225000,0.7225000,-0.1079966,0.0043694,-0.7073767,-0.1079966,-0.0788763,-0.2582086
0.7250000,0.7250000,0.7250000,-0.1055958,0.0043202,-0.6995972,-0.1055958,-0.0770303,-0.2526533
0.7275000,0.7275000,0.7275000,-0.1032565,0.0042718,-0.6919329,-0.1032565,-0.0752330,-0.2472339
0.7300000,0.7300000,0.7300000,-0.1009771,0.0042242,-0.6843815,-0.1009771,-0.0734830,-0.2419470
0.7325000,0.7325000,0.7325000,-0.0987559,0.0041773,-0.6769409,-0.0987559,-0.0717789,-0.2367892
0.7350000,0.7350000,0.7350000,-0.0965911,0.0041312,-0.6696091,-0.0965911,-0.0701193,-0.2317572
0.7375000,0.7375000,0.7375000,-0.0944813,0.0040858,-0.6623841,-0.0944813,-0.0685030,-0.2268476
0.7400000,0.7400000,0.7400000,-0.0924248,0.0040411,-0.6552640,-0.0924248,-0.0669287,-0.2220573
0.7425000,0.7425000,0.7425000,-0.0904202,0.0039971,-0.6482469,-0.0904202,-0.0653951,-0.2173831
0.7450000,0.7450000,0.7450000,-0.0884659,0.0039538,-0.6413308,-0.0884659,-0.0639012,-0.2128222
0.7475000,0.7475000,0.7475000,-0.0865607,0.0039111,-0.6345140,-0.0865607,-0.0624458,-0.2083714
0.7500000,0.7500000,0.7500000,-0.0847030,0.0038692,-0.6277947,-0.0847030,-0.0610277,-0.2040279
0.7525000,0.7525000,0.7525000,-0.0828916,0.0038278,-0.6211711,-0.0828916,-0.0596459,-0.1997889
0.7550000,0.7550000,0.7550000,-0.0811251,0.0037871,-0.6146415,-0.0811251,-0.0582994,-0.1956517
0.7575000,0.7575000,0.7575000,-0.0794024,0.0037470,-0.6082042,-0.0794024,-0.0569871,-0.1916135
0.7600000,0.7600000,0.7600000,-0.0777222,0.0037075,-0.6018576,-0.0777222,-0.0557081,-0.1876719
0.7625000,0.7625000,0.7625000,-0.0760833,0.0036685,-0.5956001,-0.0760833,-0.0544614,-0.1838242
0.7650000,0.7650000,0.7650000,-0.0744845,0.0036302,-0.5894302,-0.0744845,-0.0532462,-0.1800681
0.7675000,0.7675000,0.7675000,-0.0729249,0.0035924,-0.5833462,-0.0729249,-0.0520615,-0.1764010
0.7700000,0.7700000,0.7700000,-0.0714032,0.0035552,-0.5773467,-0.0714032,-0.0509064,-0.1728207
0.7725000,0.7725000,0.7725000,-0.0699185,0.0035185,-0.5714302,-0.0699185,-0.0497802,-0.1693250
0.7750000,0.7750000,0.7750000,-0.0684697,0.0034824,-0.5655953,-0.0684697,-0.0486821,-0.1659115
0.7775000,0.7775000,0.7775000,-0.0670559,0.0034467,-0.5598405,-0.0670559,-0.0476111,-0.1625782
0.7800000,0.7800000,0.7800000,-0.0656760,0.0034116,-0.5541645,-0.0656760,-0.0465667,-0.1593229
0.7825000,0.7825000,0.7825000,-0.0643293,0.0033770,-0.5485658,-0.0643293,-0.0455480,-0.1561437
0.7850000,0.7850000,0.7850000,-0.0630147,0.0033429,-0.5430433,-0.0630147,-0.0445544,-0.1530385
0.7875000,0.7875000,0.7875000,-0.0617314,0.0033092,-0.5375956,-0.0617314,-0.0435851,-0.1500054
0.7900000,0.7900000,0.7900000,-0.0604786,0.0032761,-0.5322213,-0.0604786,-0.0426396,-0.1470426
0.7925000,0.7925000,0.7925000,-0.0592554,0.0032434,-0.5269193,-0.0592554,-0.0417170,-0.1441482
0.7950000,0.7950000,0.7950000,-0.0580611,0.0032111,-0.5216884,-0.0580611,-0.0408169,-0.1413205
0.7975000,0.7975000,0.7975000,-0.0568949,0.0031793,-0.5165273,-0.0568949,-0.0399385,-0.1385577
0.8000000,0.8000000,0.8000000,-0.0557560,0.0031479,-0.5114349,-0.0557560,-0.0390814,-0.1358582
0.8025000,0.8025000,0.8025000,-0.0546436,0.0031170,-0.5064100,-0.0546436,-0.0382449,-0.1332203
0.8050000,0.8050000,0.8050000,-0.0535572,0.0030865,-0.5014515,-0.0535572,-0.0374284,-0.1306425
0.8075000,0.8075000,0.8075000,-0.0524960,0.0030564,-0.4965583,-0.0524960,-0.0366315,-0.1281232
0.8100000,0.8100000,0.8100000,-0.0514593,0.0030267,-0.4917293,-0.0514593,-0.0358536,-0.1256609
0.8125000,0.8125000,0.8125000,-0.0504466,0.0029974,-0.4869634,-0.0504466,-0.0350942,-0.1232542
0.8150000,0.8150000,0.8150000,-0.0494571,0.0029685,-0.4822597,-0.0494571,-0.0343527,-0.1209016
0.8175000,0.8175000,0.8175000,-0.0484903,0.0029400,-0.4776171,-0.0484903,-0.0336288,-0.1186018
0.8200000,0.8200000,0.8200000,-0.0475455,0.0029118,-0.4730345,-0.0475455,-0.0329220,-0.1163535
0.8225000,0.8225000,0.8225000,-0.0466222,0.0028841,-0.4685111,-0.0466222,-0.0322318,-0.1141552
0.8250000,0.8250000,0.8250000,-0.0457199,0.0028567,-0.4640459,-0.0457199,-0.0315577,-0.1120059
0.8275000,0.8275000,0.8275000,-0.0448380,0.0028296,-0.4596378,-0.0448380,-0.0308994,-0.1099042
0.8300000,0.8300000,0.8300000,-0.0439760,0.0028030,-0.4552861,-0.0439760,-0.0302564,-0.1078490
0.8325000,0.8325000,0.8325000,-0.0431333,0.0027766,-0.4509897,-0.0431333,-0.0296283,-0.1058390
0.8350000,0.8350000,0.8350000,-0.0423095,0.0027506,-0.4467478,-0.0423095,-0.0290147,-0.1038732
0.8375000,0.8375000,0.8375000,-0.0415041,0.0027250,-0.4425596,-0.0415041,-0.0284154,-0.1019504
0.8400000,0.8400000,0.8400000,-0.0407166,0.0026996,-0.4384242,-0.0407166,-0.0278298,-0.1000696
0.8425000,0.8425000,0.8425000,-0.0399466,0.0026746,-0.4343407,-0.0399466,-0.0272576,-0.0982298
0.8450000,0.8450000,0.8450000,-0.0391936,0.0026499,-0.4303083,-0.0391936,-0.0266986,-0.0964298
0.8475000,0.8475000,0.8475000,-0.0384572,0.0026255,-0.4263263,-0.0384572,-0.0261523,-0.0946689
0.8500000,0.8500000,0.8500000,-0.0377370,0.0026015,-0.4223938,-0.0377370,-0.0256184,-0.0929458
0.8525000,0.8525000,0.8525000,-0.0370325,0.0025777,-0.4185100,-0.0370325,-0.0250966,-0.0912599
0.8550000,0.8550000,0.8550000,-0.0363435,0.0025542,-0.4146742,-0.0363435,-0.0245866,-0.0896101
0.8575000,0.8575000,0.8575000,-0.0356694,0.0025310,-0.4108857,-0.0356694,-0.0240882,-0.0879955
0.8600000,0.8600000,0.8600000,-0.0350099,0.0025081,-0.4071437,-0.0350099,-0.0236009,-0.0864153
0.8625000,0.8625000,0.8625000,-0.0343647,0.0024855,-0.4034475,-0.0343647,-0.0231246,-0.0848687
0.8650000,0.8650000,0.8650000,-0.0337335,0.0024632,-0.3997963,-0.0337335,-0.0226589,-0.0833549
0.8675000,0.8675000,0.8675000,-0.0331157,0.0024412,-0.3961896,-0.0331157,-0.0222036,-0.0818730
0.8700000,0.8700000,0.8700000,-0.0325112,0.0024194,-0.3926266,-0.0325112,-0.0217584,-0.0804223
0.8725000,0.8725000,0.8725000,-0.0319197,0.0023978,-0.3891067,-0.0319197,-0.0213231,-0.0790020
0.8750000,0.8750000,0.8750000,-0.0313407,0.0023766,-0.3856291,-0.0313407,-0.0208974,-0.0776114
0.8775000,0.8775000,0.8775000,-0.0307740,0.0023556,-0.3821933,-0.0307740,-0.0204811,-0.0762499
0.8800000,0.8800000,0.8800000,-0.0302193,0.0023348,-0.3787986,-0.0302193,-0.0200740,-0.0749166
0.8825000,0.8825000,0.8825000,-0.0296762,0.0023143,-0.3754445,-0.0296762,-0.0196758,-0.0736110
0.8850000,0.8850000,0.8850000,-0.0291446,0.0022941,-0.3721302,-0.0291446,-0.0192863,-0.0723323
0.8875000,0.8875000,0.8875000,-0.0286242,0.0022741,-0.3688552,-0.0286242,-0.0189053,-0.0710800
0.8900000,0.8900000,0.8900000,-0.0281146,0.0022543,-0.3656190,-0.0281146,-0.0185325,-0.0698534
0.8925000,0.8925000,0.8925000,-0.0276157,0.0022348,-0.3624209,-0.0276157,-0.0181679,-0.0686520
0.8950000,0.8950000,0.8950000,-0.0271271,0.0022154,-0.3592603,-0.0271271,-0.0178112,-0.0674750
0.8975000,0.8975000,0.8975000,-0.0266486,0.0021964,-0.3561368,-0.0266486,-0.0174621,-0.0663220
0.9000000,0.9000000,0.9000000,-0.0261800,0.0021775,-0.3530498,-0.0261800,-0.0171206,-0.0651924
0.9025000,0.9025000,0.9025000,-0.0257210,0.0021589,-0.3499986,-0.0257210,-0.0167864,-0.0640857
0.9050000,0.9050000,0.9050000,-0.0252715,0.0021404,-0.3469829,-0.0252715,-0.0164593,-0.0630012
0.9075000,0.9075000,0.9075000,-0.0248311,0.0021222,-0.3440021,-0.0248311,-0.0161392,-0.0619386
0.9100000,0.9100000,0.9100000,-0.0243997,0.0021042,-0.3410557,-0.0243997,-0.0158260,-0.0608973
0.9125000,0.9125000,0.9125000,-0.0239771,0.0020864,-0.3381432,-0.0239771,-0.0155194,-0.0598767
0.9150000,0.9150000,0.9150000,-0.0235631,0.0020688,-0.3352641,-0.0235631,-0.0152193,-0.0588765
0.9175000,0.9175000,0.9175000,-0.0231575,0.0020515,-0.3324178,-0.0231575,-0.0149255,-0.0578962
0.9200000,0.9200000,0.9200000,-0.0227600,0.0020343,-0.3296041,-0.0227600,-0.0146379,-0.0569353
0.9225000,0.9225000,0.9225000,-0.0223705,0.0020173,-0.3268223,-0.0223705,-0.0143564,-0.0559934
0.9250000,0.9250000,0.9250000,-0.0219888,0.0020005,-0.3240720,-0.0219888,-0.0140808,-0.0550700
0.9275000,0.9275000,0.9275000,-0.0216147,0.0019839,-0.3213528,-0.0216147,-0.0138109,-0.0541647
0.9300000,0.9300000,0.9300000,-0.0212481,0.0019674,-0.3186642,-0.0212481,-0.0135467,-0.0532772
0.9325000,0.9325000,0.9325000,-0.0208887,0.0019512,-0.3160058,-0.0208887,-0.0132879,-0.0524070
0.9350000,0.9350000,0.9350000,-0.0205365,0.0019351,-0.3133772,-0.0205365,-0.0130346,-0.0515537
0.9375000,0.9375000,0.9375000,-0.0201912,0.0019192,-0.3107779,-0.0201912,-0.0127865,-0.0507169
0.9400000,0.9400000,0.9400000,-0.0198527,0.0019035,-0.3082076,-0.0198527,-0.0125435,-0.0498963
0.9425000,0.9425000,0.9425000,-0.0195209,0.0018880,-0.3056658,-0.0195209,-0.0123055,-0.0490916
0.9450000,0.9450000,0.9450000,-0.0191955,0.0018726,-0.3031521,-0.0191955,-0.0120724,-0.0483023
0.9475000,0.9475000,0.9475000,-0.0188765,0.0018575,-0.3006662,-0.0188765,-0.0118440,-0.0475282
0.9500000,0.9500000,0.9500000,-0.0185637,0.0018424,-0.2982077,-0.0185637,-0.0116204,-0.0467688
0.9525000,0.9525000,0.9525000,-0.0182570,0.0018276,-0.2957761,-0.0182570,-0.0114013,-0.0460239
0.9550000,0.9550000,0.9550000,-0.0179562,0.0018129,-0.2933711,-0.0179562,-0.0111867,-0.0452932
0.9575000,0.9575000,0.9575000,-0.0176612,0.0017983,-0.2909924,-0.0176612,-0.0109764,-0.0445763
0.9600000,0.9600000,0.9600000,-0.0173719,0.0017840,-0.2886395,-0.0173719,-0.0107704,-0.0438729
0.9625000,0.9625000,0.9625000,-0.0170881,0.0017697,-0.2863122,-0.0170881,-0.0105685,-0.0431828
0.9650000,0.9650000,0.9650000,-0.0168098,0.0017557,-0.2840101,-0.0168098,-0.0103708,-0.0425057
0.9675000,0.9675000,0.9675000,-0.0165367,0.0017417,-0.2817327,-0.0165367,-0.0101770,-0.0418412
0.9700000,0.9700000,0.9700000,-0.0162689,0.0017280,-0.2794799,-0.0162689,-0.0099870,-0.0411891
0.9725000,0.9725000,0.9725000,-0.0160061,0.0017143,-0.2772513,-0.0160061,-0.0098009,-0.0405492
0.9750000,0.9750000,0.9750000,-0.0157483,0.0017009,-0.2750465,-0.0157483,-0.0096185,-0.0399212
0.9775000,0.9775000,0.9775000,-0.0154954,0.0016875,-0.2728652,-0.0154954,-0.0094398,-0.0393047
0.9800000,0.9800000,0.9800000,-0.0152472,0.0016743,-0.2707071,-0.0152472,-0.0092646,-0.0386997
0.9825000,0.9825000,0.9825000,-0.0150037,0.0016613,-0.2685720,-0.0150037,-0.0090928,-0.0381058
0.9850000,0.9850000,0.9850000,-0.0147647,0.0016483,-0.2664594,-0.0147647,-0.0089245,-0.0375228
0.9875000,0.9875000,0.9875000,-0.0145302,0.0016356,-0.2643691,-0.0145302,-0.0087595,-0.0369504
0.9900000,0.9900000,0.9900000,-0.0143000,0.0016229,-0.2623008,-0.0143000,-0.0085977,-0.0363885
0.9925000,0.9925000,0.9925000,-0.0140741,0.0016104,-0.2602542,-0.0140741,-0.0084391,-0.0358368
0.9950000,0.9950000,0.9950000,-0.0138524,0.0015980,-0.2582290,-0.0138524,-0.0082837,-0.0352951
0.9975000,0.9975000,0.9975000,-0.0136348,0.0015857,-0.2562250,-0.0136348,-0.0081312,-0.0347632
1.0000000,1.0000000,1.0000000,-0.0134212,0.0015736,-0.2542418,-0.0134212,-0.0079818,-0.0342409
1.0025000,1.0025000,1.0025000,-0.0132114,0.0015616,-0.2522792,-0.0132114,-0.0078352,-0.0337281
1.0050000,1.0050000,1.0050000,-0.0130056,0.0015497,-0.2503369,-0.0130056,-0.0076915,-0.0332244
1.0075000,1.0075000,1.0075000,-0.0128035,0.0015379,-0.2484146,-0.0128035,-0.0075506,-0.0327297
1.0100000,1.0100000,1.0100000,-0.0126050,0.0015263,-0.2465122,-0.0126050,-0.0074124,-0.0322438
1.0125000,1.0125000,1.0125000,-0.0124102,0.0015148,-0.2446293,-0.0124102,-0.0072769,-0.0317666
1.0150000,1.0150000,1.0150000,-0.0122189,0.0015034,-0.2427657,-0.0122189,-0.0071440,-0.0312978
1.0175000,1.0175000,1.0175000,-0.0120310,0.0014921,-0.2409211,-0.0120310,-0.0070137,-0.0308374
1.0200000,1.0200000,1.0200000,-0.0118465,0.0014809,-0.2390953,-0.0118465,-0.0068859,-0.0303850
1.0225000,1.0225000,1.0225000,-0.0116654,0.0014698,-0.2372881,-0.0116654,-0.0067605,-0.0299406
1.0250000,1.0250000,1.0250000,-0.0114874,0.0014589,-0.2354991,-0.0114874,-0.0066375,-0.0295040
1.0275000,1.0275000,1.0275000,-0.0113127,0.0014480,-0.2337283,-0.0113127,-0.0065168,-0.0290751
1.0300000,1.0300000,1.0300000,-0.0111411,0.0014373,-0.2319753,-0.0111411,-0.0063985,-0.0286536
1.0325000,1.0325000,1.0325000,-0.0109725,0.0014266,-0.2302399,-0.0109725,-0.0062823,-0.0282394
1.0350000,1.0350000,1.0350000,-0.0108069,0.0014161,-0.2285220,-0.0108069,-0.0061684,-0.0278325
1.0375000,1.0375000,1.0375000,-0.0106442,0.0014057,-0.2268212,-0.0106442,-0.0060567,-0.0274325
1.0400000,1.0400000,1.0400000,-0.0104844,0.0013954,-0.2251374,-0.0104844,-0.0059470,-0.0270395
1.0425000,1.0425000,1.0425000,-0.0103274,0.0013852,-0.2234703,-0.0103274,-0.0058395,-0.0266532
1.0450000,1.0450000,1.0450000,-0.0101731,0.0013750,-0.2218198,-0.0101731,-0.0057339,-0.0262736
1.0475000,1.0475000,1.0475000,-0.0100216,0.0013650,-0.2201856,-0.0100216,-0.0056303,-0.0259004
1.0500000,1.0500000,1.0500000,-0.0098727,0.0013551,-0.2185676,-0.0098727,-0.0055287,-0.0255337
1.0525000,1.0525000,1.0525000,-0.0097263,0.0013453,-0.2169655,-0.0097263,-0.0054290,-0.0251731
1.0550000,1.0550000,1.0550000,-0.0095826,0.0013356,-0.2153791,-0.0095826,-0.0053311,-0.0248187
1.0575000,1.0575000,1.0575000,-0.0094413,0.0013259,-0.2138083,-0.0094413,-0.0052350,-0.0244703
1.0600000,1.0600000,1.0600000,-0.0093024,0.0013164,-0.2122528,-0.0093024,-0.0051407,-0.0241278
1.0625000,1.0625000,1.0625000,-0.0091659,0.0013069,-0.2107125,-0.0091659,-0.0050482,-0.0237910
1.0650000,1.0650000,1.0650000,-0.0090318,0.0012976,-0.2091872,-0.0090318,-0.0049574,-0.0234599
1.0675000,1.0675000,1.0675000,-0.0089000,0.0012883,-0.2076767,-0.0089000,-0.0048683,-0.0231343
1.0700000,1.0700000,1.0700000,-0.0087704,0.0012791,-0.2061808,-0.0087704,-0.0047808,-0.0228141
1.0725000,1.0725000,1.0725000,-0.0086430,0.0012701,-0.2046993,-0.0086430,-0.0046949,-0.0224993
1.0750000,1.0750000,1.0750000,-0.0085178,0.0012611,-0.2032321,-0.0085178,-0.0046106,-0.0221898
1.0775000,1.0775000,1.0775000,-0.0083948,0.0012521,-0.2017790,-0.0083948,-0.0045279,-0.0218853
1.0800000,1.0800000,1.0800000,-0.0082738,0.0012433,-0.2003398,-0.0082738,-0.0044466,-0.0215859
1.0825000,1.0825000,1.0825000,-0.0081548,0.0012346,-0.1989143,-0.0081548,-0.0043669,-0.0212914
1.0850000,1.0850000,1.0850000,-0.0080378,0.0012259,-0.1975025,-0.0080378,-0.0042886,-0.0210018
1.0875000,1.0875000,1.0875000,-0.0079228,0.0012173,-0.1961041,-0.0079228,-0.0042117,-0.0207169
1.0900000,1.0900000,1.0900000,-0.0078098,0.0012088,-0.1947189,-0.0078098,-0.0041362,-0.0204366
1.0925000,1.0925000,1.0925000,-0.0076986,0.0012004,-0.1933468,-0.0076986,-0.0040621,-0.0201609
1.0950000,1.0950000,1.0950000,-0.0075893,0.0011920,-0.1919877,-0.0075893,-0.0039893,-0.0198897
1.0975000,1.0975000,1.0975000,-0.0074818,0.0011838,-0.1906414,-0.0074818,-0.0039179,-0.0196230
1.1000000,1.1000000,1.1000000,-0.0073760,0.0011756,-0.1893078,-0.0073760,-0.0038477,-0.0193605
1.1025000,1.1025000,1.1025000,-0.0072720,0.0011675,-0.1879866,-0.0072720,-0.0037788,-0.0191022
1.1050000,1.1050000,1.1050000,-0.0071698,0.0011594,-0.1866778,-0.0071698,-0.0037111,-0.0188481
1.1075000,1.1075000,1.1075000,-0.0070692,0.0011515,-0.1853812,-0.0070692,-0.0036447,-0.0185981
1.1100000,1.1100000,1.1100000,-0.0069703,0.0011436,-0.1840966,-0.0069703,-0.0035794,-0.0183521
1.1125000,1.1125000,1.1125000,-0.0068730,0.0011357,-0.1828240,-0.0068730,-0.0035153,-0.0181101
1.1150000,1.1150000,1.1150000,-0.0067772,0.0011280,-0.1815632,-0.0067772,-0.0034524,-0.0178718
1.1175000,1.1175000,1.1175000,-0.0066831,0.0011203,-0.1803140,-0.0066831,-0.0033906,-0.0176374
1.1200000,1.1200000,1.1200000,-0.0065904,0.0011127,-0.1790763,-0.0065904,-0.0033298,-0.0174067
1.1225000,1.1225000,1.1225000,-0.0064993,0.0011052,-0.1778500,-0.0064993,-0.0032702,-0.0171796
1.1250000,1.1250000,1.1250000,-0.0064097,0.0010977,-0.1766349,-0.0064097,-0.0032116,-0.0169561
1.1275000,1.1275000,1.1275000,-0.0063215,0.0010903,-0.1754310,-0.0063215,-0.0031540,-0.0167361
1.1300000,1.1300000,1.1300000,-0.0062347,0.0010830,-0.1742380,-0.0062347,-0.0030975,-0.0165196
1.1325000,1.1325000,1.1325000,-0.0061493,0.0010757,-0.1730559,-0.0061493,-0.0030420,-0.0163064
1.1350000,1.1350000,1.1350000,-0.0060652,0.0010685,-0.1718846,-0.0060652,-0.0029874,-0.0160966
1.1375000,1.1375000,1.1375000,-0.0059826,0.0010613,-0.1707239,-0.0059826,-0.0029338,-0.0158901
1.1400000,1.1400000,1.1400000,-0.0059012,0.0010543,-0.1695736,-0.0059012,-0.0028812,-0.0156867
1.1425000,1.1425000,1.1425000,-0.0058211,0.0010473,-0.1684338,-0.0058211,-0.0028294,-0.0154865
1.1450000,1.1450000,1.1450000,-0.0057423,0.0010403,-0.1673042,-0.0057423,-0.0027786,-0.0152894
1.1475000,1.1475000,1.1475000,-0.0056648,0.0010334,-0.1661847,-0.0056648,-0.0027287,-0.0150953
1.1500000,1.1500000,1.1500000,-0.0055885,0.0010266,-0.1650753,-0.0055885,-0.0026796,-0.0149042
1.1525000,1.1525000,1.1525000,-0.0055133,0.0010198,-0.1639758,-0.0055133,-0.0026314,-0.0147161
1.1550000,1.1550000,1.1550000,-0.0054394,0.0010131,-0.1628860,-0.0054394,-0.0025840,-0.0145308
1.1575000,1.1575000,1.1575000,-0.0053666,0.0010065,-0.1618060,-0.0053666,-0.0025375,-0.0143483
1.1600000,1.1600000,1.1600000,-0.0052950,0.0009999,-0.1607356,-0.0052950,-0.0024917,-0.0141687
1.1625000,1.1625000,1.1625000,-0.0052245,0.0009933,-0.1596747,-0.0052245,-0.0024468,-0.0139917
1.1650000,1.1650000,1.1650000,-0.0051550,0.0009869,-0.1586231,-0.0051550,-0.0024026,-0.0138174
1.1675000,1.1675000,1.1675000,-0.0050867,0.0009805,-0.1575808,-0.0050867,-0.0023592,-0.0136458
1.1700000,1.1700000,1.1700000,-0.0050194,0.0009741,-0.1565477,-0.0050194,-0.0023166,-0.0134767
1.1725000,1.1725000,1.1725000,-0.0049532,0.0009678,-0.1555236,-0.0049532,-0.0022746,-0.0133102
1.1750000,1.1750000,1.1750000,-0.0048879,0.0009615,-0.1545085,-0.0048879,-0.0022334,-0.0131462
1.1775000,1.1775000,1.1775000,-0.0048237,0.0009553,-0.1535023,-0.0048237,-0.0021929,-0.0129846
1.1800000,1.1800000,1.1800000,-0.0047605,0.0009492,-0.1525048,-0.0047605,-0.0021531,-0.0128255
1.1825000,1.1825000,1.1825000,-0.0046982,0.0009431,-0.1515160,-0.0046982,-0.0021140,-0.0126687
1.1850000,1.1850000,1.1850000,-0.0046369,0.0009371,-0.1505358,-0.0046369,-0.0020756,-0.0125142
1.1875000,1.1875000,1.1875000,-0.0045766,0.0009311,-0.1495641,-0.0045766,-0.0020378,-0.0123620
1.1900000,1.1900000,1.1900000,-0.0045171,0.0009251,-0.1486008,-0.0045171,-0.0020006,-0.0122121
1.1925000,1.1925000,1.1925000,-0.0044586,0.0009192,-0.1476458,-0.0044586,-0.0019641,-0.0120644
1.1950000,1.1950000,1.1950000,-0.0044009,0.0009134,-0.1466990,-0.0044009,-0.0019282,-0.0119188
1.1975000,1.1975000,1.1975000,-0.0043441,0.0009076,-0.1457603,-0.0043441,-0.0018929,-0.0117754
1.2000000,1.2000000,1.2000000,-0.0042882,0.0009019,-0.1448297,-0.0042882,-0.0018583,-0.0116341
1.2025000,1.2025000,1.2025000,-0.0042331,0.0008962,-0.1439070,-0.0042331,-0.0018242,-0.0114949
1.2050000,1.2050000,1.2050000,-0.0041788,0.0008906,-0.1429922,-0.0041788,-0.0017907,-0.0113576
1.2075000,1.2075000,1.2075000,-0.0041254,0.0008850,-0.1420852,-0.0041254,-0.0017577,-0.0112224
1.2100000,1.2100000,1.2100000,-0.0040727,0.0008794,-0.1411858,-0.0040727,-0.0017253,-0.0110891
1.2125000,1.2125000,1.2125000,-0.0040209,0.0008739,-0.1402941,-0.0040209,-0.0016935,-0.0109578
1.2150000,1.2150000,1.2150000,-0.0039698,0.0008685,-0.1394100,-0.0039698,-0.0016622,-0.0108283
1.2175000,1.2175000,1.2175000,-0.0039194,0.0008631,-0.1385332,-0.0039194,-0.0016314,-0.0107007
1.2200000,1.2200000,1.2200000,-0.0038699,0.0008577,-0.1376639,-0.0038699,-0.0016011,-0.0105750
1.2225000,1.2225000,1.2225000,-0.0038210,0.0008524,-0.1368018,-0.0038210,-0.0015713,-0.0104510
1.2250000,1.2250000,1.2250000,-0.0037729,0.0008471,-0.1359470,-0.0037729,-0.0015421,-0.0103288
1.2275000,1.2275000,1.2275000,-0.0037255,0.0008419,-0.1350993,-0.0037255,-0.0015133,-0.0102084
1.2300000,1.2300000,1.2300000,-0.0036787,0.0008367,-0.1342587,-0.0036787,-0.0014850,-0.0100896
1.2325000,1.2325000,1.2325000,-0.0036327,0.0008315,-0.1334251,-0.0036327,-0.0014572,-0.0099726
1.2350000,1.2350000,1.2350000,-0.0035873,0.0008264,-0.1325985,-0.0035873,-0.0014299,-0.0098572
1.2375000,1.2375000,1.2375000,-0.0035426,0.0008214,-0.1317786,-0.0035426,-0.0014030,-0.0097434
1.2400000,1.2400000,1.2400000,-0.0034986,0.0008163,-0.1309656,-0.0034986,-0.0013765,-0.0096313
1.2425000,1.2425000,1.2425000,-0.0034552,0.0008114,-0.1301593,-0.0034552,-0.0013505,-0.0095207
1.2450000,1.2450000,1.2450000,-0.0034124,0.0008064,-0.1293596,-0.0034124,-0.0013249,-0.0094116
1.2475000,1.2475000,1.2475000,-0.0033702,0.0008015,-0.1285665,-0.0033702,-0.0012998,-0.0093041
1.2500000,1.2500000,1.2500000,-0.0033287,0.0007967,-0.1277799,-0.0033287,-0.0012751,-0.0091981
1.2525000,1.2525000,1.2525000,-0.0032877,0.0007919,-0.1269997,-0.0032877,-0.0012507,-0.0090935
1.2550000,1.2550000,1.2550000,-0.0032474,0.0007871,-0.1262259,-0.0032474,-0.0012268,-0.0089905
1.2575000,1.2575000,1.2575000,-0.0032076,0.0007823,-0.1254584,-0.0032076,-0.0012033,-0.0088888
1.2600000,1.2600000,1.2600000,-0.0031684,0.0007776,-0.1246971,-0.0031684,-0.0011801,-0.0087885
1.2625000,1.2625000,1.2625000,-0.0031297,0.0007730,-0.1239421,-0.0031297,-0.0011574,-0.0086897
1.2650000,1.2650000,1.2650000,-0.0030916,0.0007683,-0.1231931,-0.0030916,-0.0011350,-0.0085921
1.2675000,1.2675000,1.2675000,-0.0030540,0.0007637,-0.1224502,-0.0030540,-0.0011130,-0.0084960
1.2700000,1.2700000,1.2700000,-0.0030170,0.0007592,-0.1217133,-0.0030170,-0.0010913,-0.0084011
1.2725000,1.2725000,1.2725000,-0.0029805,0.0007547,-0.1209823,-0.0029805,-0.0010701,-0.0083075
1.2750000,1.2750000,1.2750000,-0.0029445,0.0007502,-0.1202572,-0.0029445,-0.0010491,-0.0082152
1.2775000,1.2775000,1.2775000,-0.0029091,0.0007457,-0.1195379,-0.0029091,-0.0010285,-0.0081242
1.2800000,1.2800000,1.2800000,-0.0028741,0.0007413,-0.1188244,-0.0028741,-0.0010082,-0.0080344
1.2825000,1.2825000,1.2825000,-0.0028396,0.0007370,-0.1181166,-0.0028396,-0.0009883,-0.0079458
1.2850000,1.2850000,1.2850000,-0.0028056,0.0007326,-0.1174144,-0.0028056,-0.0009687,-0.0078584
1.2875000,1.2875000,1.2875000,-0.0027721,0.0007283,-0.1167177,-0.0027721,-0.0009494,-0.0077722
1.2900000,1.2900000,1.2900000,-0.0027390,0.0007240,-0.1160267,-0.0027390,-0.0009305,-0.0076872
1.2925000,1.2925000,1.2925000,-0.0027064,0.0007198,-0.1153410,-0.0027064,-0.0009118,-0.0076033
1.2950000,1.2950000,1.2950000,-0.0026743,0.0007156,-0.1146608,-0.0026743,-0.0008934,-0.0075205
1.2975000,1.2975000,1.2975000,-0.0026426,0.0007114,-0.1139860,-0.0026426,-0.0008754,-0.0074388
1.3000000,1.3000000,1.3000000,-0.0026113,0.0007073,-0.1133165,-0.0026113,-0.0008576,-0.0073582
1.3025000,1.3025000,1.3025000,-0.0025805,0.0007032,-0.1126522,-0.0025805,-0.0008402,-0.0072787
1.3050000,1.3050000,1.3050000,-0.0025501,0.0006991,-0.1119932,-0.0025501,-0.0008230,-0.0072002
1.3075000,1.3075000,1.3075000,-0.0025201,0.0006950,-0.1113393,-0.0025201,-0.0008061,-0.0071228
1.3100000,1.3100000,1.3100000,-0.0024905,0.0006910,-0.1106905,-0.0024905,-0.0007894,-0.0070464
1.3125000,1.3125000,1.3125000,-0.0024614,0.0006870,-0.1100468,-0.0024614,-0.0007731,-0.0069709
1.3150000,1.3150000,1.3150000,-0.0024326,0.0006831,-0.1094080,-0.0024326,-0.0007570,-0.0068965
1.3175000,1.3175000,1.3175000,-0.0024042,0.0006792,-0.1087743,-0.0024042,-0.0007411,-0.0068231
1.3200000,1.3200000,1.3200000,-0.0023763,0.0006753,-0.1081454,-0.0023763,-0.0007255,-0.0067506
1.3225000,1.3225000,1.3225000,-0.0023486,0.0006714,-0.1075214,-0.0023486,-0.0007102,-0.0066791
1.3250000,1.3250000,1.3250000,-0.0023214,0.0006676,-0.1069022,-0.0023214,-0.0006951,-0.0066085
1.3275000,1.3275000,1.3275000,-0.0022946,0.0006638,-0.1062878,-0.0022946,-0.0006803,-0.0065388
1.3300000,1.3300000,1.3300000,-0.0022681,0.0006600,-0.1056781,-0.0022681,-0.0006657,-0.0064700
1.3325000,1.3325000,1.3325000,-0.0022419,0.0006562,-0.1050731,-0.0022419,-0.0006513,-0.0064022
1.3350000,1.3350000,1.3350000,-0.0022161,0.0006525,-0.1044727,-0.0022161,-0.0006372,-0.0063351
1.3375000,1.3375000,1.3375000,-0.0021907,0.0006488,-0.1038769,-0.0021907,-0.0006233,-0.0062690
1.3400000,1.3400000,1.3400000,-0.0021656,0.0006452,-0.1032856,-0.0021656,-0.0006096,-0.0062037
1.3425000,1.3425000,1.3425000,-0.0021408,0.0006415,-0.1026989,-0.0021408,-0.0005962,-0.0061392
1.3450000,1.3450000,1.3450000,-0.0021164,0.0006379,-0.1021166,-0.0021164,-0.0005829,-0.0060756
1.3475000,1.3475000,1.3475000,-0.0020923,0.0006344,-0.1015387,-0.0020923,-0.0005699,-0.0060128
1.3500000,1.3500000,1.3500000,-0.0020685,0.0006308,-0.1009652,-0.0020685,-0.0005571,-0.0059508
1.3525000,1.3525000,1.3525000,-0.0020450,0.0006273,-0.1003960,-0.0020450,-0.0005445,-0.0058895
1.3550000,1.3550000,1.3550000,-0.0020219,0.0006238,-0.0998311,-0.0020219,-0.0005320,-0.0058291
1.3575000,1.3575000,1.3575000,-0.0019990,0.0006203,-0.0992704,-0.0019990,-0.0005198,-0.0057694
1.3600000,1.3600000,1.3600000,-0.0019765,0.0006168,-0.0987140,-0.0019765,-0.0005078,-0.0057104
1.3625000,1.3625000,1.3625000,-0.0019542,0.0006134,-0.0981617,-0.0019542,-0.0004960,-0.0056522
1.3650000,1.3650000,1.3650000,-0.0019323,0.0006100,-0.0976136,-0.0019323,-0.0004844,-0.0055948
1.3675000,1.3675000,1.3675000,-0.0019106,0.0006067,-0.0970696,-0.0019106,-0.0004729,-0.0055380
1.3700000,1.3700000,1.3700000,-0.0018892,0.0006033,-0.0965296,-0.0018892,-0.0004617,-0.0054820
1.3725000,1.3725000,1.3725000,-0.0018681,0.0006000,-0.0959936,-0.0018681,-0.0004506,-0.0054267
1.3750000,1.3750000,1.3750000,-0.0018473,0.0005967,-0.0954616,-0.0018473,-0.0004397,-0.0053720
1.3775000,1.3775000,1.3775000,-0.0018267,0.0005934,-0.0949336,-0.0018267,-0.0004289,-0.0053181
1.3800000,1.3800000,1.3800000,-0.0018064,0.0005902,-0.0944094,-0.0018064,-0.0004184,-0.0052648
1.3825000,1.3825000,1.3825000,-0.0017864,0.0005869,-0.0938891,-0.0017864,-0.0004080,-0.0052121
1.3850000,1.3850000,1.3850000,-0.0017666,0.0005837,-0.0933727,-0.0017666,-0.0003978,-0.0051602
1.3875000,1.3875000,1.3875000,-0.0017471,0.0005806,-0.0928600,-0.0017471,-0.0003877,-0.0051088
1.3900000,1.3900000,1.3900000,-0.0017279,0.0005774,-0.0923511,-0.0017279,-0.0003778,-0.0050581
1.3925000,1.3925000,1.3925000,-0.0017088,0.0005743,-0.0918460,-0.0017088,-0.0003681,-0.0050080
1.3950000,1.3950000,1.3950000,-0.0016901,0.0005712,-0.0913445,-0.0016901,-0.0003585,-0.0049586
1.3975000,1.3975000,1.3975000,-0.0016715,0.0005681,-0.0908467,-0.0016715,-0.0003491,-0.0049097
1.4000000,1.4000000,1.4000000,-0.0016533,0.0005650,-0.0903525,-0.0016533,-0.0003398,-0.0048614
1.4025000,1.4025000,1.4025000,-0.0016352,0.0005620,-0.0898619,-0.0016352,-0.0003306,-0.0048137
1.4050000,1.4050000,1.4050000,-0.0016174,0.0005589,-0.0893749,-0.0016174,-0.0003217,-0.0047666
1.4075000,1.4075000,1.4075000,-0.0015998,0.0005559,-0.0888914,-0.0015998,-0.0003128,-0.0047201
1.4100000,1.4100000,1.4100000,-0.0015824,0.0005530,-0.0884114,-0.0015824,-0.0003041,-0.0046741
1.4125000,1.4125000,1.4125000,-0.0015652,0.0005500,-0.0879349,-0.0015652,-0.0002956,-0.0046287
1.4150000,1.4150000,1.4150000,-0.0015483,0.0005471,-0.0874618,-0.0015483,-0.0002871,-0.0045838
1.4175000,1.4175000,1.4175000,-0.0015316,0.0005441,-0.0869921,-0.0015316,-0.0002788,-0.0045395
1.4200000,1.4200000,1.4200000,-0.0015151,0.0005412,-0.0865257,-0.0015151,-0.0002707,-0.0044957
1.4225000,1.4225000,1.4225000,-0.0014988,0.0005384,-0.0860628,-0.0014988,-0.0002627,-0.0044524
1.4250000,1.4250000,1.4250000,-0.0014827,0.0005355,-0.0856031,-0.0014827,-0.0002548,-0.0044097
1.4275000,1.4275000,1.4275000,-0.0014668,0.0005327,-0.0851467,-0.0014668,-0.0002470,-0.0043674
1.4300000,1.4300000,1.4300000,-0.0014511,0.0005299,-0.0846935,-0.0014511,-0.0002393,-0.0043257
1.4325000,1.4325000,1.4325000,-0.0014356,0.0005271,-0.0842436,-0.0014356,-0.0002318,-0.0042844
1.4350000,1.4350000,1.4350000,-0.0014203,0.0005243,-0.0837969,-0.0014203,-0.0002244,-0.0042437
1.4375000,1.4375000,1.4375000,-0.0014051,0.0005215,-0.0833533,-0.0014051,-0.0002171,-0.0042034
1.4400000,1.4400000,1.4400000,-0.0013902,0.0005188,-0.0829129,-0.0013902,-0.0002099,-0.0041636
1.4425000,1.4425000,1.4425000,-0.0013755,0.0005161,-0.0824756,-0.0013755,-0.0002029,-0.0041243
1.4450000,1.4450000,1.4450000,-0.0013609,0.0005134,-0.0820413,-0.0013609,-0.0001959,-0.0040854
1.4475000,1.4475000,1.4475000,-0.0013465,0.0005107,-0.0816102,-0.0013465,-0.0001891,-0.0040470
1.4500000,1.4500000,1.4500000,-0.0013323,0.0005081,-0.0811820,-0.0013323,-0.0001824,-0.0040090
1.4525000,1.4525000,1.4525000,-0.0013183,0.0005054,-0.0807569,-0.0013183,-0.0001758,-0.0039715
1.4550000,1.4550000,1.4550000,-0.0013044,0.0005028,-0.0803347,-0.0013044,-0.0001693,-0.0039344
1.4575000,1.4575000,1.4575000,-0.0012908,0.0005002,-0.0799155,-0.0012908,-0.0001629,-0.0038978
1.4600000,1.4600000,1.4600000,-0.0012772,0.0004976,-0.0794992,-0.0012772,-0.0001566,-0.0038615
1.4625000,1.4625000,1.4625000,-0.0012639,0.0004950,-0.0790858,-0.0012639,-0.0001504,-0.0038257
1.4650000,1.4650000,1.4650000,-0.0012507,0.0004925,-0.0786752,-0.0012507,-0.0001442,-0.0037903
1.4675000,1.4675000,1.4675000,-0.0012377,0.0004900,-0.0782676,-0.0012377,-0.0001382,-0.0037553
1.4700000,1.4700000,1.4700000,-0.0012248,0.0004874,-0.0778627,-0.0012248,-0.0001323,-0.0037207
1.4725000,1.4725000,1.4725000,-0.0012121,0.0004849,-0.0774606,-0.0012121,-0.0001265,-0.0036866
1.4750000,1.4750000,1.4750000,-0.0011995,0.0004825,-0.0770614,-0.0011995,-0.0001208,-0.0036528
1.4775000,1.4775000,1.4775000,-0.0011871,0.0004800,-0.0766648,-0.0011871,-0.0001152,-0.0036193
1.4800000,1.4800000,1.4800000,-0.0011749,0.0004775,-0.0762710,-0.0011749,-0.0001096,-0.0035863
1.4825000,1.4825000,1.4825000,-0.0011628,0.0004751,-0.0758799,-0.0011628,-0.0001042,-0.0035537
1.4850000,1.4850000,1.4850000,-0.0011508,0.0004727,-0.0754915,-0.0011508,-0.0000988,-0.0035214
1.4875000,1.4875000,1.4875000,-0.0011390,0.0004703,-0.0751057,-0.0011390,-0.0000936,-0.0034895
1.4900000,1.4900000,1.4900000,-0.0011273,0.0004679,-0.0747226,-0.0011273,-0.0000884,-0.0034579
1.4925000,1.4925000,1.4925000,-0.0011158,0.0004655,-0.0743420,-0.0011158,-0.0000833,-0.0034267
1.4950000,1.4950000,1.4950000,-0.0011044,0.0004632,-0.0739641,-0.0011044,-0.0000782,-0.0033959
1.4975000,1.4975000,1.4975000,-0.0010931,0.0004609,-0.0735887,-0.0010931,-0.0000733,-0.0033654
1.5000000,1.5000000,1.5000000,-0.0010820,0.0004585,-0.0732159,-0.0010820,-0.0000684,-0.0033352
1.5025000,1.5025000,1.5025000,-0.0010710,0.0004562,-0.0728456,-0.0010710,-0.0000637,-0.0033054
1.5050000,1.5050000,1.5050000,-0.0010601,0.0004540,-0.0724778,-0.0010601,-0.0000589,-0.0032759
1.5075000,1.5075000,1.5075000,-0.0010494,0.0004517,-0.0721125,-0.0010494,-0.0000543,-0.0032468
1.5100000,1.5100000,1.5100000,-0.0010387,0.0004494,-0.0717496,-0.0010387,-0.0000498,-0.0032179
1.5125000,1.5125000,1.5125000,-0.0010283,0.0004472,-0.0713892,-0.0010283,-0.0000453,-0.0031894
1.5150000,1.5150000,1.5150000,-0.0010179,0.0004450,-0.0710312,-0.0010179,-0.0000409,-0.0031612
1.5175000,1.5175000,1.5175000,-0.0010077,0.0004427,-0.0706756,-0.0010077,-0.0000365,-0.0031333
1.5200000,1.5200000,1.5200000,-0.0009975,0.0004405,-0.0703224,-0.0009975,-0.0000323,-0.0031058
1.5225000,1.5225000,1.5225000,-0.0009875,0.0004384,-0.0699715,-0.0009875,-0.0000281,-0.0030785
1.5250000,1.5250000,1.5250000,-0.0009777,0.0004362,-0.0696230,-0.0009777,-0.0000240,-0.0030515
1.5275000,1.5275000,1.5275000,-0.0009679,0.0004340,-0.0692768,-0.0009679,-0.0000199,-0.0030249
1.5300000,1.5300000,1.5300000,-0.0009582,0.0004319,-0.0689329,-0.0009582,-0.0000159,-0.0029985
1.5325000,1.5325000,1.5325000,-0.0009487,0.0004298,-0.0685913,-0.0009487,-0.0000120,-0.0029724
1.5350000,1.5350000,1.5350000,-0.0009393,0.0004277,-0.0682519,-0.0009393,-0.0000081,-0.0029466
1.5375000,1.5375000,1.5375000,-0.0009299,0.0004256,-0.0679148,-0.0009299,-0.0000043,-0.0029210
1.5400000,1.5400000,1.5400000,-0.0009207,0.0004235,-0.0675799,-0.0009207,-0.0000006,-0.0028958
1.5425000,1.5425000,1.5425000,-0.0009116,0.0004214,-0.0672472,-0.0009116,0.0000031,-0.0028708
1.5450000,1.5450000,1.5450000,-0.0009026,0.0004193,-0.0669167,-0.0009026,0.0000067,-0.0028461
1.5475000,1.5475000,1.5475000,-0.0008937,0.0004173,-0.0665884,-0.0008937,0.0000103,-0.0028217
1.5500000,1.5500000,1.5500000,-0.0008849,0.0004153,-0.0662622,-0.0008849,0.0000138,-0.0027975
1.5525000,1.5525000,1.5525000,-0.0008762,0.0004133,-0.0659382,-0.0008762,0.0000172,-0.0027736
1.5550000,1.5550000,1.5550000,-0.0008676,0.0004113,-0.0656162,-0.0008676,0.0000206,-0.0027499
1.5575000,1.5575000,1.5575000,-0.0008591,0.0004093,-0.0652964,-0.0008591,0.0000239,-0.0027265
1.5600000,1.5600000,1.5600000,-0.0008507,0.0004073,-0.0649786,-0.0008507,0.0000272,-0.0027034
1.5625000,1.5625000,1.5625000,-0.0008424,0.0004053,-0.0646630,-0.0008424,0.0000304,-0.0026805
1.5650000,1.5650000,1.5650000,-0.0008342,0.0004034,-0.0643493,-0.0008342,0.0000336,-0.0026578
1.5675000,1.5675000,1.5675000,-0.0008261,0.0004014,-0.0640377,-0.0008261,0.0000367,-0.0026354
1.5700000,1.5700000,1.5700000,-0.0008181,0.0003995,-0.0637281,-0.0008181,0.0000398,-0.0026132
1.5725000,1.5725000,1.5725000,-0.0008102,0.0003976,-0.0634206,-0.0008102,0.0000428,-0.0025913
1.5750000,1.5750000,1.5750000,-0.0008023,0.0003957,-0.0631150,-0.0008023,0.0000457,-0.0025696
1.5775000,1.5775000,1.5775000,-0.0007946,0.0003938,-0.0628113,-0.0007946,0.0000486,-0.0025481
1.5800000,1.5800000,1.5800000,-0.0007869,0.0003919,-0.0625096,-0.0007869,0.0000515,-0.0025268
1.5825000,1.5825000,1.5825000,-0.0007793,0.0003900,-0.0622099,-0.0007793,0.0000543,-0.0025058
1.5850000,1.5850000,1.5850000,-0.0007718,0.0003882,-0.0619121,-0.0007718,0.0000571,-0.0024850
1.5875000,1.5875000,1.5875000,-0.0007644,0.0003863,-0.0616161,-0.0007644,0.0000598,-0.0024644
1.5900000,1.5900000,1.5900000,-0.0007571,0.0003845,-0.0613221,-0.0007571,0.0000624,-0.0024440
1.5925000,1.5925000,1.5925000,-0.0007498,0.0003827,-0.0610299,-0.0007498,0.0000651,-0.0024238
1.5950000,1.5950000,1.5950000,-0.0007427,0.0003809,-0.0607396,-0.0007427,0.0000677,-0.0024039
1.5975000,1.5975000,1.5975000,-0.0007356,0.0003791,-0.0604512,-0.0007356,0.0000702,-0.0023841
