# r[nm],d[nm],daligned[nm],U(d)[kj/mol],V(d)[e/nm],Uslab(d)[kJ/mol],UC(d)[kJ/mol],UK(d)[kJ/mol],UCl(d)[kJ/mol]
0.1675000,0.1675000,0.1675000,1692.9033575,-0.3748202,inf,1692.9033575,1057.7783113,inf
0.1700000,0.1700000,0.1700000,1527.3613400,-0.3645518,inf,1527.3613400,953.2675794,inf
0.1725000,0.1725000,0.1725000,1379.4756879,-0.3545567,inf,1379.4756879,859.9996917,inf
0.1750000,0.1750000,0.1750000,1247.1437313,-0.3448296,inf,1247.1437313,776.6295725,inf
0.1775000,0.1775000,0.1775000,1128.5430130,-0.3353655,inf,1128.5430130,701.9917609,inf
0.1800000,0.1800000,0.1800000,1022.0903715,-0.3261591,inf,1022.0903715,635.0741604,inf
0.1825000,0.1825000,0.1825000,926.4074035,-0.3172053,inf,926.4074035,574.9958838,inf
0.1850000,0.1850000,0.1850000,840.2912640,-0.3084988,inf,840.2912640,520.9885240,inf
0.1875000,0.1875000,0.1875000,762.6899356,-0.3000343,inf,762.6899356,472.3802941,inf
0.1900000,0.1900000,0.1900000,692.6812494,-0.2918067,inf,692.6812494,428.5825738,inf
0.1925000,0.1925000,0.1925000,629.4550564,-0.2838106,inf,629.4550564,389.0784784,inf
0.1950000,0.1950000,0.1950000,572.2980517,-0.2760409,inf,572.2980517,353.4131286,inf
0.1975000,0.1975000,0.1975000,520.5808318,-0.2684923,1831.0601292,520.5808318,321.1853542,inf
0.2000000,0.2000000,0.2000000,473.7468395,-0.2611597,1490.6114066,473.7468395,292.0406067,inf
0.2025000,0.2025000,0.2025000,431.3029024,-0.2540378,1220.9219754,431.3029024,265.6648957,inf
0.2050000,0.2050000,0.2050000,392.8111209,-0.2471215,1005.7373458,392.8111209,241.7795891,1723.4412040
0.2075000,0.2075000,0.2075000,357.8819002,-0.2404058,832.8767123,357.8819002,220.1369482,1572.9363089
0.2100000,0.2100000,0.2100000,326.1679551,-0.2338855,693.1327620,326.1679551,200.5162847,1435.9178099
0.2125000,0.2125000,0.2125000,297.3591388,-0.2275557,579.4884091,297.3591388,182.7206481,1311.1101707
0.2150000,0.2150000,0.2150000,271.1779772,-0.2214115,486.5538758,271.1779772,166.5739639,1197.3704594
0.2175000,0.2175000,0.2175000,247.3758022,-0.2154479,410.1584650,247.3758022,151.9185556,1093.6727499
0.2200000,0.2200000,0.2200000,225.7293977,-0.2096602,347.0518205,225.7293977,138.6129969,999.0945894
0.2225000,0.2225000,0.2225000,206.0380851,-0.2040435,294.6825548,206.0380851,126.5302436,912.8052349
0.2250000,0.2250000,0.2250000,188.1211833,-0.1985932,251.0303952,188.1211833,115.5560074,834.0554045
0.2275000,0.2275000,0.2275000,171.8157928,-0.1933047,214.4774156,171.8157928,105.5873358,762.1683290
0.2300000,0.2300000,0.2300000,156.9748560,-0.1881735,183.7169619,156.9748560,96.5313700,696.5319217
0.2325000,0.2325000,0.2325000,143.4654573,-0.1831951,157.7005047,143.4654573,88.3042541,636.5919111
0.2350000,0.2350000,0.2350000,131.1673292,-0.1783651,135.6037530,131.1673292,80.8301727,581.8458034
0.2375000,0.2375000,0.2375000,119.9715362,-0.1736793,116.7845937,119.9715362,74.0404909,531.8375635
0.2400000,0.2400000,0.2400000,109.7793133,-0.1691334,100.7299661,109.7793133,67.8729699,486.1529172
0.2425000,0.2425000,0.2425000,100.5010353,-0.1647237,87.0104012,100.5010353,62.2710315,444.4151924
0.2450000,0.2450000,0.2450000,92.0552963,-0.1604467,75.2556124,92.0552963,57.1830552,406.2816298
0.2475000,0.2475000,0.2475000,84.3680731,-0.1563006,65.1502254,84.3680731,52.5617162,371.4401020
0.2500000,0.2500000,0.2500000,77.3719473,-0.1522870,56.4368967,77.3719473,48.3634045,339.6061888
0.2525000,0.2525000,0.2525000,71.0053658,-0.1484141,48.9122904,71.0053658,44.5477805,310.5205658
0.2550000,0.2550000,0.2550000,65.2119406,-0.1447000,42.4132626,65.2119406,41.0775158,283.9466667
0.2575000,0.2575000,0.2575000,59.9398125,-0.1411759,36.8014885,59.9398125,37.9182280,259.6685858
0.2600000,0.2600000,0.2600000,55.1411258,-0.1378859,31.9533179,55.1411258,35.0385583,237.4891945
0.2625000,0.2625000,0.2625000,50.7716588,-0.1348829,27.7554421,50.7716588,32.4102955,217.2284446
0.2650000,0.2650000,0.2650000,46.7906269,-0.1322201,24.1043383,46.7906269,30.0084287,198.7218366
0.2675000,0.2675000,0.2675000,43.1606322,-0.1299398,20.9077907,43.1606322,27.8110494,181.8190333
0.2700000,0.2700000,0.2700000,39.8476884,-0.1280617,18.0872618,39.8476884,25.7990839,166.3825933
0.2725000,0.2725000,0.2725000,36.8212319,-0.1265765,15.5797749,36.8212319,23.9558960,152.2867987
0.2750000,0.2750000,0.2750000,34.0540396,-0.1254448,13.3379858,34.0540396,22.2668333,139.4165520
0.2775000,0.2775000,0.2775000,31.5220200,-0.1246031,11.3279298,31.5220200,20.7187844,127.6663311
0.2800000,0.2800000,0.2800000,29.2038939,-0.1239737,9.5252139,29.2038939,19.2997942,116.9392219
0.2825000,0.2825000,0.2825000,27.0808081,-0.1234749,7.9111207,27.0808081,17.9987534,107.1460709
0.2850000,0.2850000,0.2850000,25.1359370,-0.1230293,6.4697211,25.1359370,16.8051403,98.2048112
0.2875000,0.2875000,0.2875000,23.3541101,-0.1225689,5.1862654,23.3541101,15.7087663,90.0399853
0.2900000,0.2900000,0.2900000,21.7214905,-0.1220362,4.0465567,21.7214905,14.6994880,82.5824366
0.2925000,0.2925000,0.2925000,20.2253085,-0.1213848,3.0368791,20.2253085,13.7669106,75.7690916
0.2950000,0.2950000,0.2950000,18.8536291,-0.1205792,2.1441500,18.8536291,12.9002016,69.5427298
0.2975000,0.2975000,0.2975000,17.5951162,-0.1195965,1.3561081,17.5951162,12.0881959,63.8516562
0.3000000,0.3000000,0.3000000,16.4387583,-0.1184288,0.6614569,16.4387583,11.3199345,58.6492449
0.3025000,0.3025000,0.3025000,15.3735666,-0.1170869,0.0499389,15.3735666,10.5856146,53.8933811
0.3050000,0.3050000,0.3050000,14.3883280,-0.1156013,-0.4876612,14.3883280,9.8776858,49.5458718
0.3075000,0.3075000,0.3075000,13.4715558,-0.1140191,-0.9595771,13.4715558,9.1916679,45.5719011
0.3100000,0.3100000,0.3100000,12.6117816,-0.1123957,-1.3731643,12.6117816,8.5263259,41.9395799
0.3125000,0.3125000,0.3125000,11.7982354,-0.1107826,-1.7350162,11.7982354,7.8831207,38.6196077
0.3150000,0.3150000,0.3150000,11.0217788,-0.1092135,-2.0510587,11.0217788,7.2651796,35.5850305
0.3175000,0.3175000,0.3175000,10.2757848,-0.1076969,-2.3266103,10.2757848,6.6761774,32.8110678
0.3200000,0.3200000,0.3200000,9.5566105,-0.1062159,-2.5664148,9.5566105,6.1194440,30.2749790
0.3225000,0.3225000,0.3225000,8.8634565,-0.1047371,-2.7746708,8.8634565,5.5974312,27.9559482
0.3250000,0.3250000,0.3250000,8.1976750,-0.1032231,-2.9550767,8.1976750,5.1115103,25.8349641
0.3275000,0.3275000,0.3275000,7.5618002,-0.1016430,-3.1108944,7.5618002,4.6619992,23.8946735
0.3300000,0.3300000,0.3300000,6.9586182,-0.0999782,-3.2450240,6.9586182,4.2483126,22.1191818
0.3325000,0.3325000,0.3325000,6.3904833,-0.0982233,-3.3600746,6.3904833,3.8691567,20.4937827
0.3350000,0.3350000,0.3350000,5.8589411,-0.0963833,-3.4584289,5.8589411,3.5227244,19.0046217
0.3375000,0.3375000,0.3375000,5.3646095,-0.0944700,-3.5422976,5.3646095,3.2068706,17.6383344
0.3400000,0.3400000,0.3400000,4.9072300,-0.0924985,-3.6137587,4.9072300,2.9192634,16.3817442
0.3425000,0.3425000,0.3425000,4.4858062,-0.0904836,-3.6747712,4.4858062,2.6575108,15.2217285
0.3450000,0.3450000,0.3450000,4.0987737,-0.0884380,-3.7271573,4.0987737,2.4192602,14.1453483
0.3475000,0.3475000,0.3475000,3.7441692,-0.0863713,-3.7725617,3.7441692,2.2022708,13.1402785
0.3500000,0.3500000,0.3500000,3.4197837,-0.0842898,-3.8124035,3.4197837,2.0044538,12.1954645
0.3525000,0.3525000,0.3525000,3.1232945,-0.0821966,-3.8478386,3.1232945,1.8238853,11.3018215
0.3550000,0.3550000,0.3550000,2.8523727,-0.0800937,-3.8797433,2.8523727,1.6587986,10.4527363
0.3575000,0.3575000,0.3575000,2.6047611,-0.0779823,-3.9087197,2.6047611,1.5075680,9.6441799
0.3600000,0.3600000,0.3600000,2.3783228,-0.0758639,-3.9351201,2.3783228,1.3686936,8.8743865
0.3625000,0.3625000,0.3625000,2.1710616,-0.0737407,-3.9590853,2.1710616,1.2407927,8.1432155
0.3650000,0.3650000,0.3650000,1.9811235,-0.0716157,-3.9805928,1.9811235,1.1225979,7.4514035
0.3675000,0.3675000,0.3675000,1.8067871,-0.0694924,-3.9995093,1.8067871,1.0129587,6.7998970
0.3700000,0.3700000,0.3700000,1.6464530,-0.0673745,-4.0156421,1.6464530,0.9108433,6.1893756
0.3725000,0.3725000,0.3725000,1.4986369,-0.0652659,-4.0287861,1.4986369,0.8153357,5.6199878
0.3750000,0.3750000,0.3750000,1.3619680,-0.0631703,-4.0387630,1.3619680,0.7256235,5.0912617
0.3775000,0.3775000,0.3775000,1.2351912,-0.0610915,-4.0454532,1.2351912,0.6409761,4.6021361
0.3800000,0.3800000,0.3800000,1.1171718,-0.0590332,-4.0488202,1.1171718,0.5607167,4.1510580
0.3825000,0.3825000,0.3825000,1.0068957,-0.0569990,-4.0489244,1.0068957,0.4841988,3.7361086
0.3850000,0.3850000,0.3850000,0.9034634,-0.0549927,-4.0459237,0.9034634,0.4107987,3.3551310
0.3875000,0.3875000,0.3875000,0.8060723,-0.0530176,-4.0400582,0.8060723,0.3399318,3.0058447
0.3900000,0.3900000,0.3900000,0.7139914,-0.0510769,-4.0316212,0.7139914,0.2710897,2.6859373
0.3925000,0.3925000,0.3925000,0.6265359,-0.0491731,-4.0209215,0.6265359,0.2038859,2.3931307
0.3950000,0.3950000,0.3950000,0.5430529,-0.0473083,-4.0082457,0.5430529,0.1380955,2.1252227
0.3975000,0.3975000,0.3975000,0.4629265,-0.0454843,-3.9938308,0.4629265,0.0736721,1.8801097
0.4000000,0.4000000,0.4000000,0.3856030,-0.0437031,-3.9778524,0.3856030,0.0107399,1.6557950
0.4025000,0.4025000,0.4025000,0.3106294,-0.0419672,-3.9604289,0.3106294,-0.0504395,1.4503902
0.4050000,0.4050000,0.4050000,0.2376900,-0.0402798,-3.9416361,0.2376900,-0.1095155,1.2621149
0.4075000,0.4075000,0.4075000,0.1666301,-0.0386452,-3.9215277,0.1666301,-0.1661006,1.0892972
0.4100000,0.4100000,0.4100000,0.0974582,-0.0370678,-3.9001536,0.0974582,-0.2198184,0.9303779
0.4125000,0.4125000,0.4125000,0.0303255,-0.0355523,-3.8775723,0.0303255,-0.2703417,0.7839163
0.4150000,0.4150000,0.4150000,-0.0345108,-0.0341027,-3.8538566,-0.0345108,-0.3174199,0.6485960
0.4175000,0.4175000,0.4175000,-0.0967331,-0.0327222,-3.8290892,-0.0967331,-0.3608970,0.5232262
0.4200000,0.4200000,0.4200000,-0.1560083,-0.0314129,-3.8033522,-0.1560083,-0.4007205,0.4067345
0.4225000,0.4225000,0.4225000,-0.2120281,-0.0301753,-3.7767150,-0.2120281,-0.4369434,0.2981523
0.4250000,0.4250000,0.4250000,-0.2645404,-0.0290086,-3.7492236,-0.2645404,-0.4697190,0.1965941
0.4275000,0.4275000,0.4275000,-0.3133711,-0.0279107,-3.7208947,-0.3133711,-0.4992868,0.1012392
0.4300000,0.4300000,0.4300000,-0.3584385,-0.0268780,-3.6917169,-0.3584385,-0.5259503,0.0113216
0.4325000,0.4325000,0.4325000,-0.3997583,-0.0259065,-3.6616554,-0.3997583,-0.5500475,-0.0738667
0.4350000,0.4350000,0.4350000,-0.4374417,-0.0249909,-3.6306616,-0.4374417,-0.5719176,-0.1549595
0.4375000,0.4375000,0.4375000,-0.4716858,-0.0241260,-3.5986836,-0.4716858,-0.5918696,-0.2324934
0.4400000,0.4400000,0.4400000,-0.5027548,-0.0233062,-3.5656761,-0.5027548,-0.6101596,-0.3068836
0.4425000,0.4425000,0.4425000,-0.5309560,-0.0225263,-3.5316092,-0.5309560,-0.6269798,-0.3784088
0.4450000,0.4450000,0.4450000,-0.5566109,-0.0217816,-3.4964735,-0.5566109,-0.6424596,-0.4472085
0.4475000,0.4475000,0.4475000,-0.5800275,-0.0210680,-3.4602829,-0.5800275,-0.6566771,-0.5132941
0.4500000,0.4500000,0.4500000,-0.6014783,-0.0203823,-3.4230748,-0.6014783,-0.6696746,-0.5765726
0.4525000,0.4525000,0.4525000,-0.6211869,-0.0197219,-3.3849076,-0.6211869,-0.6814748,-0.6368787
0.4550000,0.4550000,0.4550000,-0.6393237,-0.0190848,-3.3458580,-0.6393237,-0.6920943,-0.6940096
0.4575000,0.4575000,0.4575000,-0.6560110,-0.0184694,-3.3060165,-0.6560110,-0.7015524,-0.7477589
0.4600000,0.4600000,0.4600000,-0.6713316,-0.0178744,-3.2654834,-0.6713316,-0.7098749,-0.7979470
0.4625000,0.4625000,0.4625000,-0.6853407,-0.0172984,-3.2243645,-0.6853407,-0.7170935,-0.8444439
0.4650000,0.4650000,0.4650000,-0.6980766,-0.0167406,-3.1827680,-0.6980766,-0.7232426,-0.8871855
0.4675000,0.4675000,0.4675000,-0.7095700,-0.0162000,-3.1408015,-0.7095700,-0.7283541,-0.9261824
0.4700000,0.4700000,0.4700000,-0.7198501,-0.0156757,-3.0985692,-0.7198501,-0.7324545,-0.9615205
0.4725000,0.4725000,0.4725000,-0.7289472,-0.0151672,-3.0561708,-0.7289472,-0.7355651,-0.9933546
0.4750000,0.4750000,0.4750000,-0.7368928,-0.0146739,-3.0136998,-0.7368928,-0.7377056,-1.0218964
0.4775000,0.4775000,0.4775000,-0.7437175,-0.0141957,-2.9712429,-0.7437175,-0.7389000,-1.0473968
0.4800000,0.4800000,0.4800000,-0.7494496,-0.0137325,-2.9288795,-0.7494496,-0.7391822,-1.0701278
0.4825000,0.4825000,0.4825000,-0.7541156,-0.0132842,-2.8866818,-0.7541156,-0.7385975,-1.0903633
0.4850000,0.4850000,0.4850000,-0.7577420,-0.0128510,-2.8447143,-0.7577420,-0.7372014,-1.1083635
0.4875000,0.4875000,0.4875000,-0.7603600,-0.0124328,-2.8030348,-0.7603600,-0.7350548,-1.1243622
0.4900000,0.4900000,0.4900000,-0.7620082,-0.0120295,-2.7616940,-0.7620082,-0.7322181,-1.1385600
0.4925000,0.4925000,0.4925000,-0.7627338,-0.0116407,-2.7207364,-0.7627338,-0.7287458,-1.1511206
0.4950000,0.4950000,0.4950000,-0.7625912,-0.0112661,-2.6802007,-0.7625912,-0.7246830,-1.1621715
0.4975000,0.4975000,0.4975000,-0.7616380,-0.0109052,-2.6401200,-0.7616380,-0.7200630,-1.1718091
0.5000000,0.5000000,0.5000000,-0.7599306,-0.0105576,-2.6005223,-0.7599306,-0.7149073,-1.1801038
0.5025000,0.5025000,0.5025000,-0.7575199,-0.0102228,-2.5614315,-0.7575199,-0.7092270,-1.1871081
0.5050000,0.5050000,0.5050000,-0.7544482,-0.0099008,-2.5228671,-0.7544482,-0.7030256,-1.1928625
0.5075000,0.5075000,0.5075000,-0.7507476,-0.0095913,-2.4848450,-0.7507476,-0.6963020,-1.1974007
0.5100000,0.5100000,0.5100000,-0.7464396,-0.0092943,-2.4473778,-0.7464396,-0.6890548,-1.2007537
0.5125000,0.5125000,0.5125000,-0.7415367,-0.0090102,-2.4104752,-0.7415367,-0.6812853,-1.2029522
0.5150000,0.5150000,0.5150000,-0.7360443,-0.0087389,-2.3741444,-0.7360443,-0.6730001,-1.2040284
0.5175000,0.5175000,0.5175000,-0.7299643,-0.0084808,-2.3383903,-0.7299643,-0.6642130,-1.2040176
0.5200000,0.5200000,0.5200000,-0.7232981,-0.0082361,-2.3032155,-0.7232981,-0.6549457,-1.2029598
0.5225000,0.5225000,0.5225000,-0.7160495,-0.0080049,-2.2686213,-0.7160495,-0.6452271,-1.2008994
0.5250000,0.5250000,0.5250000,-0.7082274,-0.0077872,-2.2346070,-0.7082274,-0.6350932,-1.1978853
0.5275000,0.5275000,0.5275000,-0.6998472,-0.0075828,-2.2011708,-0.6998472,-0.6245851,-1.1939681
0.5300000,0.5300000,0.5300000,-0.6909313,-0.0073914,-2.1683096,-0.6909313,-0.6137479,-1.1891984
0.5325000,0.5325000,0.5325000,-0.6815095,-0.0072126,-2.1360195,-0.6815095,-0.6026291,-1.1836234
0.5350000,0.5350000,0.5350000,-0.6716178,-0.0070458,-2.1042953,-0.6716178,-0.5912771,-1.1772848
0.5375000,0.5375000,0.5375000,-0.6612977,-0.0068904,-2.0731316,-0.6612977,-0.5797399,-1.1702170
0.5400000,0.5400000,0.5400000,-0.6505946,-0.0067456,-2.0425218,-0.6505946,-0.5680644,-1.1624464
0.5425000,0.5425000,0.5425000,-0.6395564,-0.0066107,-2.0124593,-0.6395564,-0.5562949,-1.1539915
0.5450000,0.5450000,0.5450000,-0.6282324,-0.0064850,-1.9829366,-0.6282324,-0.5444734,-1.1448643
0.5475000,0.5475000,0.5475000,-0.6166718,-0.0063676,-1.9539460,-0.6166718,-0.5326386,-1.1350723
0.5500000,0.5500000,0.5500000,-0.6049230,-0.0062577,-1.9254797,-0.6049230,-0.5208258,-1.1246209
0.5525000,0.5525000,0.5525000,-0.5930325,-0.0061548,-1.8975293,-0.5930325,-0.5090667,-1.1135156
0.5550000,0.5550000,0.5550000,-0.5810443,-0.0060580,-1.8700864,-0.5810443,-0.4973900,-1.1017646
0.5575000,0.5575000,0.5575000,-0.5689995,-0.0059668,-1.8431424,-0.5689995,-0.4858207,-1.0893807
0.5600000,0.5600000,0.5600000,-0.5569363,-0.0058806,-1.8166888,-0.5569363,-0.4743808,-1.0763821
0.5625000,0.5625000,0.5625000,-0.5448894,-0.0057988,-1.7907167,-0.5448894,-0.4630892,-1.0627936
0.5650000,0.5650000,0.5650000,-0.5328900,-0.0057210,-1.7652175,-0.5328900,-0.4519620,-1.0486461
0.5675000,0.5675000,0.5675000,-0.5209663,-0.0056467,-1.7401823,-0.5209663,-0.4410129,-1.0339768
0.5700000,0.5700000,0.5700000,-0.5091432,-0.0055756,-1.7156024,-0.5091432,-0.4302532,-1.0188279
0.5725000,0.5725000,0.5725000,-0.4974424,-0.0055072,-1.6914690,-0.4974424,-0.4196921,-1.0032458
0.5750000,0.5750000,0.5750000,-0.4858830,-0.0054414,-1.6677736,-0.4858830,-0.4093370,-0.9872801
0.5775000,0.5775000,0.5775000,-0.4744813,-0.0053778,-1.6445076,-0.4744813,-0.3991934,-0.9709820
0.5800000,0.5800000,0.5800000,-0.4632510,-0.0053161,-1.6216624,-0.4632510,-0.3892655,-0.9544039
0.5825000,0.5825000,0.5825000,-0.4522040,-0.0052562,-1.5992297,-0.4522040,-0.3795562,-0.9375977
0.5850000,0.5850000,0.5850000,-0.4413497,-0.0051980,-1.5772012,-0.4413497,-0.3700671,-0.9206143
0.5875000,0.5875000,0.5875000,-0.4306960,-0.0051411,-1.5555687,-0.4306960,-0.3607990,-0.9035029
0.5900000,0.5900000,0.5900000,-0.4202489,-0.0050856,-1.5343241,-0.4202489,-0.3517516,-0.8863105
0.5925000,0.5925000,0.5925000,-0.4100133,-0.0050312,-1.5134595,-0.4100133,-0.3429240,-0.8690813
0.5950000,0.5950000,0.5950000,-0.3999924,-0.0049779,-1.4929672,-0.3999924,-0.3343147,-0.8518564
0.5975000,0.5975000,0.5975000,-0.3901885,-0.0049255,-1.4728395,-0.3901885,-0.3259214,-0.8346738
0.6000000,0.6000000,0.6000000,-0.3806028,-0.0048741,-1.4530687,-0.3806028,-0.3177417,-0.8175683
0.6025000,0.6025000,0.6025000,-0.3712357,-0.0048234,-1.4336477,-0.3712357,-0.3097724,-0.8005715
0.6050000,0.6050000,0.6050000,-0.3620868,-0.0047736,-1.4145691,-0.3620868,-0.3020103,-0.7837117
0.6075000,0.6075000,0.6075000,-0.3531550,-0.0047245,-1.3958257,-0.3531550,-0.2944517,-0.7670142
0.6100000,0.6100000,0.6100000,-0.3444387,-0.0046760,-1.3774108,-0.3444387,-0.2870929,-0.7505012
0.6125000,0.6125000,0.6125000,-0.3359356,-0.0046282,-1.3593173,-0.3359356,-0.2799299,-0.7341923
0.6150000,0.6150000,0.6150000,-0.3276432,-0.0045810,-1.3415387,-0.3276432,-0.2729585,-0.7181045
0.6175000,0.6175000,0.6175000,-0.3195587,-0.0045344,-1.3240684,-0.3195587,-0.2661746,-0.7022522
0.6200000,0.6200000,0.6200000,-0.3116788,-0.0044883,-1.3069000,-0.3116788,-0.2595738,-0.6866478
0.6225000,0.6225000,0.6225000,-0.3040001,-0.0044428,-1.2900273,-0.3040001,-0.2531519,-0.6713016
0.6250000,0.6250000,0.6250000,-0.2965188,-0.0043978,-1.2734440,-0.2965188,-0.2469045,-0.6562218
0.6275000,0.6275000,0.6275000,-0.2892313,-0.0043532,-1.2571443,-0.2892313,-0.2408273,-0.6414153
0.6300000,0.6300000,0.6300000,-0.2821335,-0.0043092,-1.2411222,-0.2821335,-0.2349158,-0.6268872
0.6325000,0.6325000,0.6325000,-0.2752215,-0.0042657,-1.2253721,-0.2752215,-0.2291659,-0.6126412
0.6350000,0.6350000,0.6350000,-0.2684912,-0.0042226,-1.2098882,-0.2684912,-0.2235733,-0.5986801
0.6375000,0.6375000,0.6375000,-0.2619383,-0.0041800,-1.1946652,-0.2619383,-0.2181337,-0.5850052
0.6400000,0.6400000,0.6400000,-0.2555589,-0.0041379,-1.1796976,-0.2555589,-0.2128431,-0.5716172
0.6425000,0.6425000,0.6425000,-0.2493487,-0.0040962,-1.1649803,-0.2493487,-0.2076972,-0.5585156
0.6450000,0.6450000,0.6450000,-0.2433035,-0.0040549,-1.1505080,-0.2433035,-0.2026922,-0.5456994
0.6475000,0.6475000,0.6475000,-0.2374193,-0.0040141,-1.1362759,-0.2374193,-0.1978240,-0.5331668
0.6500000,0.6500000,0.6500000,-0.2316919,-0.0039737,-1.1222790,-0.2316919,-0.1930889,-0.5209155
0.6525000,0.6525000,0.6525000,-0.2261174,-0.0039337,-1.1085126,-0.2261174,-0.1884831,-0.5089427
0.6550000,0.6550000,0.6550000,-0.2206916,-0.0038942,-1.0949719,-0.2206916,-0.1840028,-0.4972451
0.6575000,0.6575000,0.6575000,-0.2154107,-0.0038551,-1.0816525,-0.2154107,-0.1796445,-0.4858191
0.6600000,0.6600000,0.6600000,-0.2102709,-0.0038164,-1.0685498,-0.2102709,-0.1754047,-0.4746608
0.6625000,0.6625000,0.6625000,-0.2052682,-0.0037781,-1.0556595,-0.2052682,-0.1712799,-0.4637660
0.6650000,0.6650000,0.6650000,-0.2003990,-0.0037403,-1.0429774,-0.2003990,-0.1672668,-0.4531303
0.6675000,0.6675000,0.6675000,-0.1956597,-0.0037028,-1.0304993,-0.1956597,-0.1633622,-0.4427491
0.6700000,0.6700000,0.6700000,-0.1910465,-0.0036658,-1.0182211,-0.1910465,-0.1595630,-0.4326177
0.6725000,0.6725000,0.6725000,-0.1865562,-0.0036291,-1.0061389,-0.1865562,-0.1558659,-0.4227313
0.6750000,0.6750000,0.6750000,-0.1821851,-0.0035929,-0.9942488,-0.1821851,-0.1522681,-0.4130849
0.6775000,0.6775000,0.6775000,-0.1779300,-0.0035571,-0.9825470,-0.1779300,-0.1487667,-0.4036736
0.6800000,0.6800000,0.6800000,-0.1737877,-0.0035216,-0.9710298,-0.1737877,-0.1453588,-0.3944924
0.6825000,0.6825000,0.6825000,-0.1697549,-0.0034866,-0.9596936,-0.1697549,-0.1420417,-0.3855363
0.6850000,0.6850000,0.6850000,-0.1658287,-0.0034519,-0.9485348,-0.1658287,-0.1388128,-0.3768002
0.6875000,0.6875000,0.6875000,-0.1620058,-0.0034176,-0.9375500,-0.1620058,-0.1356694,-0.3682792
0.6900000,0.6900000,0.6900000,-0.1582836,-0.0033838,-0.9267359,-0.1582836,-0.1326091,-0.3599683
0.6925000,0.6925000,0.6925000,-0.1546590,-0.0033502,-0.9160891,-0.1546590,-0.1296294,-0.3518626
0.6950000,0.6950000,0.6950000,-0.1511293,-0.0033171,-0.9056063,-0.1511293,-0.1267280,-0.3439572
0.6975000,0.6975000,0.6975000,-0.1476918,-0.0032844,-0.8952845,-0.1476918,-0.1239025,-0.3362472
0.7000000,0.7000000,0.7000000,-0.1443439,-0.0032520,-0.8851206,-0.1443439,-0.1211509,-0.3287279
0.7025000,0.7025000,0.7025000,-0.1410831,-0.0032200,-0.8751115,-0.1410831,-0.1184709,-0.3213946
0.7050000,0.7050000,0.7050000,-0.1379068,-0.0031883,-0.8652544,-0.1379068,-0.1158604,-0.3142428
0.7075000,0.7075000,0.7075000,-0.1348127,-0.0031571,-0.8555462,-0.1348127,-0.1133175,-0.3072678
0.7100000,0.7100000,0.7100000,-0.1317984,-0.0031261,-0.8459843,-0.1317984,-0.1108401,-0.3004652
0.7125000,0.7125000,0.7125000,-0.1288617,-0.0030956,-0.8365658,-0.1288617,-0.1084264,-0.2938307
0.7150000,0.7150000,0.7150000,-0.1260004,-0.0030653,-0.8272882,-0.1260004,-0.1060746,-0.2873600
0.7175000,0.7175000,0.7175000,-0.1232123,-0.0030355,-0.8181486,-0.1232123,-0.1037828,-0.2810488
0.7200000,0.7200000,0.7200000,-0.1204953,-0.0030060,-0.8091447,-0.1204953,-0.1015493,-0.2748931
0.7225000,0.7225000,0.7225000,-0.1178474,-0.0029768,-0.8002737,-0.1178474,-0.0993725,-0.2688889
0.7250000,0.7250000,0.7250000,-0.1152668,-0.0029479,-0.7915334,-0.1152668,-0.0972507,-0.2630321
0.7275000,0.7275000,0.7275000,-0.1127514,-0.0029194,-0.7829213,-0.1127514,-0.0951824,-0.2573192
0.7300000,0.7300000,0.7300000,-0.1102995,-0.0028913,-0.7744350,-0.1102995,-0.0931661,-0.2517461
0.7325000,0.7325000,0.7325000,-0.1079093,-0.0028634,-0.7660723,-0.1079093,-0.0912002,-0.2463094
0.7350000,0.7350000,0.7350000,-0.1055790,-0.0028359,-0.7578308,-0.1055790,-0.0892833,-0.2410054
0.7375000,0.7375000,0.7375000,-0.1033069,-0.0028087,-0.7497084,-0.1033069,-0.0874141,-0.2358307
0.7400000,0.7400000,0.7400000,-0.1010915,-0.0027818,-0.7417030,-0.1010915,-0.0855911,-0.2307819
0.7425000,0.7425000,0.7425000,-0.0989311,-0.0027552,-0.7338123,-0.0989311,-0.0838132,-0.2258557
0.7450000,0.7450000,0.7450000,-0.0968243,-0.0027290,-0.7260344,-0.0968243,-0.0820790,-0.2210488
0.7475000,0.7475000,0.7475000,-0.0947694,-0.0027030,-0.7183673,-0.0947694,-0.0803874,-0.2163582
0.7500000,0.7500000,0.7500000,-0.0927652,-0.0026774,-0.7108089,-0.0927652,-0.0787370,-0.2117807
0.7525000,0.7525000,0.7525000,-0.0908101,-0.0026520,-0.7033573,-0.0908101,-0.0771269,-0.2073134
0.7550000,0.7550000,0.7550000,-0.0889029,-0.0026270,-0.6960106,-0.0889029,-0.0755558,-0.2029535
0.7575000,0.7575000,0.7575000,-0.0870422,-0.0026022,-0.6887670,-0.0870422,-0.0740227,-0.1986980
0.7600000,0.7600000,0.7600000,-0.0852267,-0.0025777,-0.6816247,-0.0852267,-0.0725265,-0.1945443
0.7625000,0.7625000,0.7625000,-0.0834552,-0.0025535,-0.6745819,-0.0834552,-0.0710663,-0.1904896
0.7650000,0.7650000,0.7650000,-0.0817265,-0.0025296,-0.6676368,-0.0817265,-0.0696410,-0.1865314
0.7675000,0.7675000,0.7675000,-0.0800394,-0.0025060,-0.6607878,-0.0800394,-0.0682496,-0.1826672
0.7700000,0.7700000,0.7700000,-0.0783929,-0.0024827,-0.6540331,-0.0783929,-0.0668914,-0.1788945
0.7725000,0.7725000,0.7725000,-0.0767857,-0.0024596,-0.6473712,-0.0767857,-0.0655653,-0.1752108
0.7750000,0.7750000,0.7750000,-0.0752169,-0.0024368,-0.6408004,-0.0752169,-0.0642704,-0.1716140
0.7775000,0.7775000,0.7775000,-0.0736853,-0.0024142,-0.6343193,-0.0736853,-0.0630061,-0.1681016
0.7800000,0.7800000,0.7800000,-0.0721901,-0.0023920,-0.6279261,-0.0721901,-0.0617713,-0.1646716
0.7825000,0.7825000,0.7825000,-0.0707302,-0.0023699,-0.6216195,-0.0707302,-0.0605654,-0.1613217
0.7850000,0.7850000,0.7850000,-0.0693046,-0.0023482,-0.6153980,-0.0693046,-0.0593875,-0.1580499
0.7875000,0.7875000,0.7875000,-0.0679125,-0.0023267,-0.6092602,-0.0679125,-0.0582369,-0.1548541
0.7900000,0.7900000,0.7900000,-0.0665530,-0.0023054,-0.6032045,-0.0665530,-0.0571130,-0.1517325
0.7925000,0.7925000,0.7925000,-0.0652252,-0.0022844,-0.5972297,-0.0652252,-0.0560149,-0.1486831
0.7950000,0.7950000,0.7950000,-0.0639282,-0.0022636,-0.5913344,-0.0639282,-0.0549419,-0.1457039
0.7975000,0.7975000,0.7975000,-0.0626614,-0.0022431,-0.5855172,-0.0626614,-0.0538936,-0.1427933
0.8000000,0.8000000,0.8000000,-0.0614237,-0.0022228,-0.5797769,-0.0614237,-0.0528691,-0.1399494
0.8025000,0.8025000,0.8025000,-0.0602146,-0.0022027,-0.5741122,-0.0602146,-0.0518678,-0.1371706
0.8050000,0.8050000,0.8050000,-0.0590332,-0.0021829,-0.5685218,-0.0590332,-0.0508893,-0.1344552
0.8075000,0.8075000,0.8075000,-0.0578788,-0.0021632,-0.5630045,-0.0578788,-0.0499328,-0.1318015
0.8100000,0.8100000,0.8100000,-0.0567508,-0.0021439,-0.5575591,-0.0567508,-0.0489977,-0.1292080
0.8125000,0.8125000,0.8125000,-0.0556484,-0.0021247,-0.5521844,-0.0556484,-0.0480837,-0.1266731
0.8150000,0.8150000,0.8150000,-0.0545710,-0.0021058,-0.5468793,-0.0545710,-0.0471900,-0.1241954
0.8175000,0.8175000,0.8175000,-0.0535179,-0.0020870,-0.5416426,-0.0535179,-0.0463162,-0.1217735
0.8200000,0.8200000,0.8200000,-0.0524886,-0.0020685,-0.5364733,-0.0524886,-0.0454617,-0.1194058
0.8225000,0.8225000,0.8225000,-0.0514823,-0.0020502,-0.5313702,-0.0514823,-0.0446262,-0.1170911
0.8250000,0.8250000,0.8250000,-0.0504985,-0.0020321,-0.5263324,-0.0504985,-0.0438090,-0.1148280
0.8275000,0.8275000,0.8275000,-0.0495367,-0.0020142,-0.5213586,-0.0495367,-0.0430098,-0.1126153
0.8300000,0.8300000,0.8300000,-0.0485963,-0.0019966,-0.5164479,-0.0485963,-0.0422280,-0.1104516
0.8325000,0.8325000,0.8325000,-0.0476767,-0.0019791,-0.5115994,-0.0476767,-0.0414633,-0.1083357
0.8350000,0.8350000,0.8350000,-0.0467774,-0.0019618,-0.5068119,-0.0467774,-0.0407151,-0.1062665
0.8375000,0.8375000,0.8375000,-0.0458979,-0.0019447,-0.5020846,-0.0458979,-0.0399832,-0.1042428
0.8400000,0.8400000,0.8400000,-0.0450377,-0.0019278,-0.4974165,-0.0450377,-0.0392670,-0.1022634
0.8425000,0.8425000,0.8425000,-0.0441964,-0.0019111,-0.4928067,-0.0441964,-0.0385662,-0.1003273
0.8450000,0.8450000,0.8450000,-0.0433734,-0.0018946,-0.4882542,-0.0433734,-0.0378805,-0.0984334
0.8475000,0.8475000,0.8475000,-0.0425683,-0.0018782,-0.4837581,-0.0425683,-0.0372094,-0.0965807
0.8500000,0.8500000,0.8500000,-0.0417806,-0.0018621,-0.4793177,-0.0417806,-0.0365525,-0.0947682
0.8525000,0.8525000,0.8525000,-0.0410100,-0.0018461,-0.4749319,-0.0410100,-0.0359096,-0.0929948
0.8550000,0.8550000,0.8550000,-0.0402560,-0.0018303,-0.4706000,-0.0402560,-0.0352803,-0.0912596
0.8575000,0.8575000,0.8575000,-0.0395182,-0.0018147,-0.4663212,-0.0395182,-0.0346642,-0.0895617
0.8600000,0.8600000,0.8600000,-0.0387961,-0.0017992,-0.4620945,-0.0387961,-0.0340611,-0.0879002
0.8625000,0.8625000,0.8625000,-0.0380895,-0.0017839,-0.4579193,-0.0380895,-0.0334706,-0.0862741
0.8650000,0.8650000,0.8650000,-0.0373979,-0.0017688,-0.4537947,-0.0373979,-0.0328924,-0.0846828
0.8675000,0.8675000,0.8675000,-0.0367210,-0.0017539,-0.4497200,-0.0367210,-0.0323262,-0.0831252
0.8700000,0.8700000,0.8700000,-0.0360584,-0.0017391,-0.4456944,-0.0360584,-0.0317718,-0.0816006
0.8725000,0.8725000,0.8725000,-0.0354098,-0.0017245,-0.4417171,-0.0354098,-0.0312287,-0.0801083
0.8750000,0.8750000,0.8750000,-0.0347748,-0.0017100,-0.4377874,-0.0347748,-0.0306969,-0.0786473
0.8775000,0.8775000,0.8775000,-0.0341531,-0.0016957,-0.4339047,-0.0341531,-0.0301760,-0.0772171
0.8800000,0.8800000,0.8800000,-0.0335444,-0.0016815,-0.4300682,-0.0335444,-0.0296657,-0.0758168
0.8825000,0.8825000,0.8825000,-0.0329484,-0.0016676,-0.4262772,-0.0329484,-0.0291659,-0.0744458
0.8850000,0.8850000,0.8850000,-0.0323647,-0.0016537,-0.4225310,-0.0323647,-0.0286762,-0.0731033
0.8875000,0.8875000,0.8875000,-0.0317932,-0.0016400,-0.4188290,-0.0317932,-0.0281964,-0.0717887
0.8900000,0.8900000,0.8900000,-0.0312334,-0.0016265,-0.4151705,-0.0312334,-0.0277262,-0.0705014
0.8925000,0.8925000,0.8925000,-0.0306851,-0.0016131,-0.4115549,-0.0306851,-0.0272656,-0.0692406
0.8950000,0.8950000,0.8950000,-0.0301481,-0.0015998,-0.4079815,-0.0301481,-0.0268141,-0.0680058
0.8975000,0.8975000,0.8975000,-0.0296221,-0.0015867,-0.4044498,-0.0296221,-0.0263717,-0.0667963
0.9000000,0.9000000,0.9000000,-0.0291068,-0.0015738,-0.4009590,-0.0291068,-0.0259381,-0.0656116
0.9025000,0.9025000,0.9025000,-0.0286020,-0.0015609,-0.3975087,-0.0286020,-0.0255132,-0.0644511
0.9050000,0.9050000,0.9050000,-0.0281074,-0.0015482,-0.3940982,-0.0281074,-0.0250966,-0.0633143
0.9075000,0.9075000,0.9075000,-0.0276229,-0.0015357,-0.3907270,-0.0276229,-0.0246882,-0.0622005
0.9100000,0.9100000,0.9100000,-0.0271480,-0.0015232,-0.3873944,-0.0271480,-0.0242879,-0.0611093
0.9125000,0.9125000,0.9125000,-0.0266828,-0.0015109,-0.3841000,-0.0266828,-0.0238954,-0.0600402
0.9150000,0.9150000,0.9150000,-0.0262268,-0.0014988,-0.3808432,-0.0262268,-0.0235106,-0.0589925
0.9175000,0.9175000,0.9175000,-0.0257800,-0.0014867,-0.3776233,-0.0257800,-0.0231333,-0.0579660
0.9200000,0.9200000,0.9200000,-0.0253420,-0.0014748,-0.3744400,-0.0253420,-0.0227634,-0.0569599
0.9225000,0.9225000,0.9225000,-0.0249128,-0.0014630,-0.3712927,-0.0249128,-0.0224005,-0.0559740
0.9250000,0.9250000,0.9250000,-0.0244920,-0.0014514,-0.3681809,-0.0244920,-0.0220447,-0.0550077
0.9275000,0.9275000,0.9275000,-0.0240796,-0.0014398,-0.3651040,-0.0240796,-0.0216957,-0.0540607
0.9300000,0.9300000,0.9300000,-0.0236753,-0.0014284,-0.3620616,-0.0236753,-0.0213534,-0.0531323
0.9325000,0.9325000,0.9325000,-0.0232789,-0.0014171,-0.3590532,-0.0232789,-0.0210177,-0.0522224
0.9350000,0.9350000,0.9350000,-0.0228903,-0.0014059,-0.3560783,-0.0228903,-0.0206884,-0.0513303
0.9375000,0.9375000,0.9375000,-0.0225093,-0.0013949,-0.3531365,-0.0225093,-0.0203653,-0.0504558
0.9400000,0.9400000,0.9400000,-0.0221356,-0.0013839,-0.3502273,-0.0221356,-0.0200483,-0.0495984
0.9425000,0.9425000,0.9425000,-0.0217693,-0.0013731,-0.3473502,-0.0217693,-0.0197373,-0.0487578
0.9450000,0.9450000,0.9450000,-0.0214100,-0.0013624,-0.3445048,-0.0214100,-0.0194322,-0.0479336
0.9475000,0.9475000,0.9475000,-0.0210576,-0.0013517,-0.3416906,-0.0210576,-0.0191328,-0.0471254
0.9500000,0.9500000,0.9500000,-0.0207121,-0.0013412,-0.3389073,-0.0207121,-0.0188389,-0.0463329
0.9525000,0.9525000,0.9525000,-0.0203731,-0.0013308,-0.3361543,-0.0203731,-0.0185506,-0.0455557
0.9550000,0.9550000,0.9550000,-0.0200407,-0.0013205,-0.3334313,-0.0200407,-0.0182676,-0.0447935
0.9575000,0.9575000,0.9575000,-0.0197146,-0.0013103,-0.3307379,-0.0197146,-0.0179899,-0.0440459
0.9600000,0.9600000,0.9600000,-0.0193947,-0.0013003,-0.3280737,-0.0193947,-0.0177173,-0.0433127
0.9625000,0.9625000,0.9625000,-0.0190808,-0.0012903,-0.3254382,-0.0190808,-0.0174497,-0.0425936
0.9650000,0.9650000,0.9650000,-0.0187729,-0.0012804,-0.3228312,-0.0187729,-0.0171871,-0.0418881
0.9675000,0.9675000,0.9675000,-0.0184709,-0.0012706,-0.3202521,-0.0184709,-0.0169292,-0.0411961
0.9700000,0.9700000,0.9700000,-0.0181745,-0.0012609,-0.3177006,-0.0181745,-0.0166761,-0.0405172
0.9725000,0.9725000,0.9725000,-0.0178836,-0.0012513,-0.3151763,-0.0178836,-0.0164275,-0.0398512
0.9750000,0.9750000,0.9750000,-0.0175982,-0.0012418,-0.3126790,-0.0175982,-0.0161835,-0.0391977
0.9775000,0.9775000,0.9775000,-0.0173181,-0.0012324,-0.3102082,-0.0173181,-0.0159438,-0.0385566
0.9800000,0.9800000,0.9800000,-0.0170433,-0.0012231,-0.3077635,-0.0170433,-0.0157085,-0.0379275
0.9825000,0.9825000,0.9825000,-0.0167735,-0.0012139,-0.3053447,-0.0167735,-0.0154775,-0.0373101
0.9850000,0.9850000,0.9850000,-0.0165088,-0.0012048,-0.3029513,-0.0165088,-0.0152505,-0.0367044
0.9875000,0.9875000,0.9875000,-0.0162489,-0.0011958,-0.3005831,-0.0162489,-0.0150277,-0.0361099
0.9900000,0.9900000,0.9900000,-0.0159938,-0.0011868,-0.2982396,-0.0159938,-0.0148088,-0.0355264
0.9925000,0.9925000,0.9925000,-0.0157434,-0.0011780,-0.2959207,-0.0157434,-0.0145937,-0.0349538
0.9950000,0.9950000,0.9950000,-0.0154975,-0.0011692,-0.2936259,-0.0154975,-0.0143825,-0.0343918
0.9975000,0.9975000,0.9975000,-0.0152562,-0.0011605,-0.2913550,-0.0152562,-0.0141751,-0.0338402
1.0000000,1.0000000,1.0000000,-0.0150192,-0.0011519,-0.2891076,-0.0150192,-0.0139712,-0.0332987
1.0025000,1.0025000,1.0025000,-0.0147866,-0.0011434,-0.2868834,-0.0147866,-0.0137710,-0.0327671
1.0050000,1.0050000,1.0050000,-0.0145582,-0.0011350,-0.2846822,-0.0145582,-0.0135742,-0.0322453
1.0075000,1.0075000,1.0075000,-0.0143339,-0.0011267,-0.2825035,-0.0143339,-0.0133809,-0.0317330
1.0100000,1.0100000,1.0100000,-0.0141136,-0.0011184,-0.2803473,-0.0141136,-0.0131910,-0.0312301
1.0125000,1.0125000,1.0125000,-0.0138973,-0.0011102,-0.2782130,-0.0138973,-0.0130043,-0.0307363
1.0150000,1.0150000,1.0150000,-0.0136849,-0.0011021,-0.2761006,-0.0136849,-0.0128209,-0.0302514
1.0175000,1.0175000,1.0175000,-0.0134762,-0.0010941,-0.2740096,-0.0134762,-0.0126406,-0.0297753
1.0200000,1.0200000,1.0200000,-0.0132713,-0.0010861,-0.2719398,-0.0132713,-0.0124635,-0.0293078
1.0225000,1.0225000,1.0225000,-0.0130701,-0.0010783,-0.2698910,-0.0130701,-0.0122894,-0.0288487
1.0250000,1.0250000,1.0250000,-0.0128724,-0.0010705,-0.2678628,-0.0128724,-0.0121182,-0.0283978
1.0275000,1.0275000,1.0275000,-0.0126781,-0.0010627,-0.2658551,-0.0126781,-0.0119500,-0.0279551
1.0300000,1.0300000,1.0300000,-0.0124874,-0.0010551,-0.2638675,-0.0124874,-0.0117846,-0.0275202
1.0325000,1.0325000,1.0325000,-0.0122999,-0.0010475,-0.2618999,-0.0122999,-0.0116221,-0.0270931
1.0350000,1.0350000,1.0350000,-0.0121158,-0.0010400,-0.2599518,-0.0121158,-0.0114623,-0.0266735
1.0375000,1.0375000,1.0375000,-0.0119349,-0.0010326,-0.2580232,-0.0119349,-0.0113051,-0.0262614
1.0400000,1.0400000,1.0400000,-0.0117572,-0.0010252,-0.2561138,-0.0117572,-0.0111507,-0.0258566
1.0425000,1.0425000,1.0425000,-0.0115825,-0.0010179,-0.2542233,-0.0115825,-0.0109988,-0.0254589
1.0450000,1.0450000,1.0450000,-0.0114109,-0.0010107,-0.2523514,-0.0114109,-0.0108494,-0.0250683
1.0475000,1.0475000,1.0475000,-0.0112422,-0.0010035,-0.2504981,-0.0112422,-0.0107025,-0.0246845
1.0500000,1.0500000,1.0500000,-0.0110765,-0.0009964,-0.2486629,-0.0110765,-0.0105581,-0.0243074
1.0525000,1.0525000,1.0525000,-0.0109136,-0.0009894,-0.2468458,-0.0109136,-0.0104161,-0.0239369
1.0550000,1.0550000,1.0550000,-0.0107535,-0.0009825,-0.2450464,-0.0107535,-0.0102764,-0.0235728
1.0575000,1.0575000,1.0575000,-0.0105962,-0.0009756,-0.2432646,-0.0105962,-0.0101390,-0.0232151
1.0600000,1.0600000,1.0600000,-0.0104416,-0.0009687,-0.2415002,-0.0104416,-0.0100039,-0.0228636
1.0625000,1.0625000,1.0625000,-0.0102896,-0.0009620,-0.2397528,-0.0102896,-0.0098710,-0.0225182
1.0650000,1.0650000,1.0650000,-0.0101401,-0.0009553,-0.2380225,-0.0101401,-0.0097402,-0.0221788
1.0675000,1.0675000,1.0675000,-0.0099933,-0.0009486,-0.2363088,-0.0099933,-0.0096116,-0.0218452
1.0700000,1.0700000,1.0700000,-0.0098489,-0.0009420,-0.2346117,-0.0098489,-0.0094851,-0.0215173
1.0725000,1.0725000,1.0725000,-0.0097069,-0.0009355,-0.2329308,-0.0097069,-0.0093606,-0.0211950
1.0750000,1.0750000,1.0750000,-0.0095674,-0.0009290,-0.2312661,-0.0095674,-0.0092382,-0.0208783
1.0775000,1.0775000,1.0775000,-0.0094301,-0.0009226,-0.2296174,-0.0094301,-0.0091177,-0.0205670
1.0800000,1.0800000,1.0800000,-0.0092952,-0.0009163,-0.2279843,-0.0092952,-0.0089991,-0.0202609
1.0825000,1.0825000,1.0825000,-0.0091626,-0.0009100,-0.2263668,-0.0091626,-0.0088825,-0.0199601
1.0850000,1.0850000,1.0850000,-0.0090321,-0.0009038,-0.2247647,-0.0090321,-0.0087677,-0.0196643
1.0875000,1.0875000,1.0875000,-0.0089039,-0.0008976,-0.2231778,-0.0089039,-0.0086547,-0.0193736
1.0900000,1.0900000,1.0900000,-0.0087777,-0.0008915,-0.2216058,-0.0087777,-0.0085436,-0.0190878
1.0925000,1.0925000,1.0925000,-0.0086537,-0.0008854,-0.2200487,-0.0086537,-0.0084342,-0.0188067
1.0950000,1.0950000,1.0950000,-0.0085317,-0.0008794,-0.2185062,-0.0085317,-0.0083265,-0.0185304
1.0975000,1.0975000,1.0975000,-0.0084117,-0.0008735,-0.2169782,-0.0084117,-0.0082205,-0.0182588
1.1000000,1.1000000,1.1000000,-0.0082936,-0.0008676,-0.2154645,-0.0082936,-0.0081162,-0.0179916
1.1025000,1.1025000,1.1025000,-0.0081776,-0.0008617,-0.2139650,-0.0081776,-0.0080135,-0.0177289
1.1050000,1.1050000,1.1050000,-0.0080634,-0.0008559,-0.2124794,-0.0080634,-0.0079124,-0.0174706
1.1075000,1.1075000,1.1075000,-0.0079511,-0.0008502,-0.2110076,-0.0079511,-0.0078129,-0.0172166
1.1100000,1.1100000,1.1100000,-0.0078406,-0.0008445,-0.2095494,-0.0078406,-0.0077150,-0.0169668
1.1125000,1.1125000,1.1125000,-0.0077319,-0.0008389,-0.2081048,-0.0077319,-0.0076186,-0.0167211
1.1150000,1.1150000,1.1150000,-0.0076249,-0.0008333,-0.2066734,-0.0076249,-0.0075236,-0.0164794
1.1175000,1.1175000,1.1175000,-0.0075197,-0.0008277,-0.2052553,-0.0075197,-0.0074301,-0.0162418
1.1200000,1.1200000,1.1200000,-0.0074162,-0.0008222,-0.2038502,-0.0074162,-0.0073381,-0.0160080
1.1225000,1.1225000,1.1225000,-0.0073144,-0.0008168,-0.2024579,-0.0073144,-0.0072475,-0.0157781
1.1250000,1.1250000,1.1250000,-0.0072142,-0.0008114,-0.2010784,-0.0072142,-0.0071582,-0.0155519
1.1275000,1.1275000,1.1275000,-0.0071156,-0.0008060,-0.1997114,-0.0071156,-0.0070703,-0.0153294
1.1300000,1.1300000,1.1300000,-0.0070185,-0.0008007,-0.1983569,-0.0070185,-0.0069838,-0.0151106
1.1325000,1.1325000,1.1325000,-0.0069230,-0.0007955,-0.1970147,-0.0069230,-0.0068986,-0.0148952
1.1350000,1.1350000,1.1350000,-0.0068291,-0.0007903,-0.1956846,-0.0068291,-0.0068146,-0.0146834
1.1375000,1.1375000,1.1375000,-0.0067366,-0.0007851,-0.1943666,-0.0067366,-0.0067319,-0.0144750
1.1400000,1.1400000,1.1400000,-0.0066456,-0.0007800,-0.1930604,-0.0066456,-0.0066505,-0.0142700
1.1425000,1.1425000,1.1425000,-0.0065560,-0.0007749,-0.1917660,-0.0065560,-0.0065703,-0.0140682
1.1450000,1.1450000,1.1450000,-0.0064679,-0.0007699,-0.1904831,-0.0064679,-0.0064913,-0.0138697
1.1475000,1.1475000,1.1475000,-0.0063811,-0.0007649,-0.1892118,-0.0063811,-0.0064135,-0.0136744
1.1500000,1.1500000,1.1500000,-0.0062957,-0.0007599,-0.1879518,-0.0062957,-0.0063368,-0.0134822
1.1525000,1.1525000,1.1525000,-0.0062116,-0.0007550,-0.1867031,-0.0062116,-0.0062613,-0.0132931
1.1550000,1.1550000,1.1550000,-0.0061288,-0.0007502,-0.1854654,-0.0061288,-0.0061869,-0.0131070
1.1575000,1.1575000,1.1575000,-0.0060473,-0.0007453,-0.1842388,-0.0060473,-0.0061136,-0.0129238
1.1600000,1.1600000,1.1600000,-0.0059671,-0.0007406,-0.1830229,-0.0059671,-0.0060413,-0.0127435
1.1625000,1.1625000,1.1625000,-0.0058882,-0.0007358,-0.1818179,-0.0058882,-0.0059702,-0.0125661
1.1650000,1.1650000,1.1650000,-0.0058104,-0.0007311,-0.1806234,-0.0058104,-0.0059000,-0.0123915
1.1675000,1.1675000,1.1675000,-0.0057339,-0.0007265,-0.1794394,-0.0057339,-0.0058309,-0.0122197
1.1700000,1.1700000,1.1700000,-0.0056585,-0.0007218,-0.1782658,-0.0056585,-0.0057629,-0.0120505
1.1725000,1.1725000,1.1725000,-0.0055843,-0.0007173,-0.1771025,-0.0055843,-0.0056957,-0.0118840
1.1750000,1.1750000,1.1750000,-0.0055112,-0.0007127,-0.1759493,-0.0055112,-0.0056296,-0.0117201
1.1775000,1.1775000,1.1775000,-0.0054393,-0.0007082,-0.1748062,-0.0054393,-0.0055645,-0.0115588
1.1800000,1.1800000,1.1800000,-0.0053684,-0.0007038,-0.1736730,-0.0053684,-0.0055002,-0.0113999
1.1825000,1.1825000,1.1825000,-0.0052986,-0.0006993,-0.1725497,-0.0052986,-0.0054369,-0.0112436
1.1850000,1.1850000,1.1850000,-0.0052299,-0.0006949,-0.1714360,-0.0052299,-0.0053745,-0.0110897
1.1875000,1.1875000,1.1875000,-0.0051622,-0.0006906,-0.1703320,-0.0051622,-0.0053130,-0.0109381
1.1900000,1.1900000,1.1900000,-0.0050956,-0.0006863,-0.1692375,-0.0050956,-0.0052524,-0.0107889
1.1925000,1.1925000,1.1925000,-0.0050299,-0.0006820,-0.1681524,-0.0050299,-0.0051926,-0.0106420
1.1950000,1.1950000,1.1950000,-0.0049653,-0.0006777,-0.1670766,-0.0049653,-0.0051337,-0.0104974
1.1975000,1.1975000,1.1975000,-0.0049016,-0.0006735,-0.1660100,-0.0049016,-0.0050757,-0.0103550
1.2000000,1.2000000,1.2000000,-0.0048389,-0.0006693,-0.1649525,-0.0048389,-0.0050184,-0.0102147
1.2025000,1.2025000,1.2025000,-0.0047771,-0.0006652,-0.1639040,-0.0047771,-0.0049620,-0.0100767
1.2050000,1.2050000,1.2050000,-0.0047162,-0.0006611,-0.1628644,-0.0047162,-0.0049063,-0.0099407
1.2075000,1.2075000,1.2075000,-0.0046562,-0.0006570,-0.1618337,-0.0046562,-0.0048514,-0.0098068
1.2100000,1.2100000,1.2100000,-0.0045972,-0.0006530,-0.1608117,-0.0045972,-0.0047973,-0.0096749
1.2125000,1.2125000,1.2125000,-0.0045390,-0.0006490,-0.1597983,-0.0045390,-0.0047440,-0.0095450
1.2150000,1.2150000,1.2150000,-0.0044816,-0.0006450,-0.1587934,-0.0044816,-0.0046914,-0.0094171
1.2175000,1.2175000,1.2175000,-0.0044251,-0.0006410,-0.1577970,-0.0044251,-0.0046395,-0.0092912
1.2200000,1.2200000,1.2200000,-0.0043695,-0.0006371,-0.1568090,-0.0043695,-0.0045884,-0.0091671
1.2225000,1.2225000,1.2225000,-0.0043146,-0.0006332,-0.1558292,-0.0043146,-0.0045379,-0.0090449
1.2250000,1.2250000,1.2250000,-0.0042606,-0.0006294,-0.1548577,-0.0042606,-0.0044882,-0.0089245
1.2275000,1.2275000,1.2275000,-0.0042073,-0.0006256,-0.1538942,-0.0042073,-0.0044391,-0.0088060
1.2300000,1.2300000,1.2300000,-0.0041549,-0.0006218,-0.1529387,-0.0041549,-0.0043907,-0.0086892
1.2325000,1.2325000,1.2325000,-0.0041032,-0.0006180,-0.1519912,-0.0041032,-0.0043430,-0.0085742
1.2350000,1.2350000,1.2350000,-0.0040522,-0.0006143,-0.1510515,-0.0040522,-0.0042959,-0.0084608
1.2375000,1.2375000,1.2375000,-0.0040020,-0.0006106,-0.1501196,-0.0040020,-0.0042495,-0.0083492
1.2400000,1.2400000,1.2400000,-0.0039525,-0.0006069,-0.1491954,-0.0039525,-0.0042036,-0.0082392
1.2425000,1.2425000,1.2425000,-0.0039037,-0.0006033,-0.1482788,-0.0039037,-0.0041585,-0.0081309
1.2450000,1.2450000,1.2450000,-0.0038557,-0.0005997,-0.1473697,-0.0038557,-0.0041139,-0.0080241
1.2475000,1.2475000,1.2475000,-0.0038083,-0.0005961,-0.1464681,-0.0038083,-0.0040699,-0.0079190
1.2500000,1.2500000,1.2500000,-0.0037616,-0.0005926,-0.1455738,-0.0037616,-0.0040265,-0.0078153
1.2525000,1.2525000,1.2525000,-0.0037156,-0.0005890,-0.1446868,-0.0037156,-0.0039837,-0.0077132
1.2550000,1.2550000,1.2550000,-0.0036702,-0.0005855,-0.1438071,-0.0036702,-0.0039415,-0.0076127
1.2575000,1.2575000,1.2575000,-0.0036255,-0.0005821,-0.1429345,-0.0036255,-0.0038998,-0.0075135
1.2600000,1.2600000,1.2600000,-0.0035814,-0.0005786,-0.1420690,-0.0035814,-0.0038587,-0.0074159
1.2625000,1.2625000,1.2625000,-0.0035379,-0.0005752,-0.1412105,-0.0035379,-0.0038182,-0.0073196
1.2650000,1.2650000,1.2650000,-0.0034951,-0.0005718,-0.1403590,-0.0034951,-0.0037781,-0.0072248
1.2675000,1.2675000,1.2675000,-0.0034529,-0.0005685,-0.1395143,-0.0034529,-0.0037386,-0.0071313
1.2700000,1.2700000,1.2700000,-0.0034112,-0.0005651,-0.1386764,-0.0034112,-0.0036996,-0.0070392
1.2725000,1.2725000,1.2725000,-0.0033702,-0.0005618,-0.1378452,-0.0033702,-0.0036612,-0.0069484
1.2750000,1.2750000,1.2750000,-0.0033297,-0.0005585,-0.1370207,-0.0033297,-0.0036232,-0.0068589
1.2775000,1.2775000,1.2775000,-0.0032898,-0.0005553,-0.1362028,-0.0032898,-0.0035858,-0.0067708
1.2800000,1.2800000,1.2800000,-0.0032504,-0.0005520,-0.1353914,-0.0032504,-0.0035488,-0.0066839
1.2825000,1.2825000,1.2825000,-0.0032116,-0.0005488,-0.1345865,-0.0032116,-0.0035123,-0.0065982
1.2850000,1.2850000,1.2850000,-0.0031734,-0.0005456,-0.1337880,-0.0031734,-0.0034763,-0.0065138
1.2875000,1.2875000,1.2875000,-0.0031357,-0.0005425,-0.1329958,-0.0031357,-0.0034407,-0.0064306
1.2900000,1.2900000,1.2900000,-0.0030985,-0.0005394,-0.1322099,-0.0030985,-0.0034056,-0.0063485
1.2925000,1.2925000,1.2925000,-0.0030618,-0.0005362,-0.1314301,-0.0030618,-0.0033710,-0.0062677
1.2950000,1.2950000,1.2950000,-0.0030256,-0.0005332,-0.1306566,-0.0030256,-0.0033368,-0.0061880
1.2975000,1.2975000,1.2975000,-0.0029899,-0.0005301,-0.1298891,-0.0029899,-0.0033031,-0.0061094
1.3000000,1.3000000,1.3000000,-0.0029547,-0.0005271,-0.1291276,-0.0029547,-0.0032697,-0.0060319
1.3025000,1.3025000,1.3025000,-0.0029200,-0.0005240,-0.1283722,-0.0029200,-0.0032368,-0.0059556
1.3050000,1.3050000,1.3050000,-0.0028858,-0.0005210,-0.1276226,-0.0028858,-0.0032044,-0.0058803
1.3075000,1.3075000,1.3075000,-0.0028520,-0.0005181,-0.1268788,-0.0028520,-0.0031723,-0.0058061
1.3100000,1.3100000,1.3100000,-0.0028187,-0.0005151,-0.1261409,-0.0028187,-0.0031406,-0.0057329
1.3125000,1.3125000,1.3125000,-0.0027859,-0.0005122,-0.1254087,-0.0027859,-0.0031094,-0.0056608
1.3150000,1.3150000,1.3150000,-0.0027535,-0.0005093,-0.1246822,-0.0027535,-0.0030785,-0.0055896
1.3175000,1.3175000,1.3175000,-0.0027215,-0.0005064,-0.1239613,-0.0027215,-0.0030481,-0.0055195
1.3200000,1.3200000,1.3200000,-0.0026900,-0.0005036,-0.1232460,-0.0026900,-0.0030180,-0.0054504
1.3225000,1.3225000,1.3225000,-0.0026589,-0.0005007,-0.1225362,-0.0026589,-0.0029883,-0.0053822
1.3250000,1.3250000,1.3250000,-0.0026283,-0.0004979,-0.1218318,-0.0026283,-0.0029589,-0.0053149
1.3275000,1.3275000,1.3275000,-0.0025980,-0.0004951,-0.1211329,-0.0025980,-0.0029299,-0.0052486
1.3300000,1.3300000,1.3300000,-0.0025681,-0.0004923,-0.1204393,-0.0025681,-0.0029013,-0.0051833
1.3325000,1.3325000,1.3325000,-0.0025387,-0.0004896,-0.1197511,-0.0025387,-0.0028731,-0.0051188
1.3350000,1.3350000,1.3350000,-0.0025096,-0.0004868,-0.1190680,-0.0025096,-0.0028452,-0.0050552
1.3375000,1.3375000,1.3375000,-0.0024809,-0.0004841,-0.1183902,-0.0024809,-0.0028176,-0.0049925
1.3400000,1.3400000,1.3400000,-0.0024527,-0.0004814,-0.1177176,-0.0024527,-0.0027904,-0.0049307
1.3425000,1.3425000,1.3425000,-0.0024247,-0.0004788,-0.1170501,-0.0024247,-0.0027635,-0.0048697
1.3450000,1.3450000,1.3450000,-0.0023972,-0.0004761,-0.1163876,-0.0023972,-0.0027369,-0.0048095
1.3475000,1.3475000,1.3475000,-0.0023700,-0.0004735,-0.1157301,-0.0023700,-0.0027107,-0.0047502
1.3500000,1.3500000,1.3500000,-0.0023432,-0.0004709,-0.1150776,-0.0023432,-0.0026848,-0.0046917
1.3525000,1.3525000,1.3525000,-0.0023168,-0.0004683,-0.1144300,-0.0023168,-0.0026592,-0.0046340
1.3550000,1.3550000,1.3550000,-0.0022906,-0.0004657,-0.1137873,-0.0022906,-0.0026339,-0.0045771
1.3575000,1.3575000,1.3575000,-0.0022649,-0.0004631,-0.1131494,-0.0022649,-0.0026089,-0.0045209
1.3600000,1.3600000,1.3600000,-0.0022394,-0.0004606,-0.1125163,-0.0022394,-0.0025842,-0.0044656
1.3625000,1.3625000,1.3625000,-0.0022143,-0.0004581,-0.1118879,-0.0022143,-0.0025599,-0.0044109
1.3650000,1.3650000,1.3650000,-0.0021896,-0.0004556,-0.1112642,-0.0021896,-0.0025358,-0.0043570
1.3675000,1.3675000,1.3675000,-0.0021651,-0.0004531,-0.1106452,-0.0021651,-0.0025120,-0.0043039
1.3700000,1.3700000,1.3700000,-0.0021410,-0.0004506,-0.1100307,-0.0021410,-0.0024885,-0.0042514
1.3725000,1.3725000,1.3725000,-0.0021172,-0.0004482,-0.1094208,-0.0021172,-0.0024652,-0.0041997
1.3750000,1.3750000,1.3750000,-0.0020937,-0.0004457,-0.1088155,-0.0020937,-0.0024423,-0.0041487
1.3775000,1.3775000,1.3775000,-0.0020705,-0.0004433,-0.1082146,-0.0020705,-0.0024196,-0.0040983
1.3800000,1.3800000,1.3800000,-0.0020476,-0.0004409,-0.1076181,-0.0020476,-0.0023972,-0.0040486
1.3825000,1.3825000,1.3825000,-0.0020250,-0.0004385,-0.1070261,-0.0020250,-0.0023751,-0.0039996
1.3850000,1.3850000,1.3850000,-0.0020027,-0.0004362,-0.1064383,-0.0020027,-0.0023532,-0.0039513
1.3875000,1.3875000,1.3875000,-0.0019807,-0.0004338,-0.1058549,-0.0019807,-0.0023316,-0.0039035
1.3900000,1.3900000,1.3900000,-0.0019589,-0.0004315,-0.1052758,-0.0019589,-0.0023102,-0.0038565
1.3925000,1.3925000,1.3925000,-0.0019375,-0.0004292,-0.1047009,-0.0019375,-0.0022891,-0.0038100
1.3950000,1.3950000,1.3950000,-0.0019163,-0.0004269,-0.1041302,-0.0019163,-0.0022682,-0.0037642
1.3975000,1.3975000,1.3975000,-0.0018954,-0.0004246,-0.1035637,-0.0018954,-0.0022476,-0.0037190
1.4000000,1.4000000,1.4000000,-0.0018747,-0.0004224,-0.1030012,-0.0018747,-0.0022272,-0.0036744
1.4025000,1.4025000,1.4025000,-0.0018543,-0.0004201,-0.1024429,-0.0018543,-0.0022070,-0.0036303
1.4050000,1.4050000,1.4050000,-0.0018342,-0.0004179,-0.1018886,-0.0018342,-0.0021871,-0.0035869
1.4075000,1.4075000,1.4075000,-0.0018143,-0.0004157,-0.1013383,-0.0018143,-0.0021674,-0.0035440
1.4100000,1.4100000,1.4100000,-0.0017947,-0.0004135,-0.1007920,-0.0017947,-0.0021480,-0.0035017
1.4125000,1.4125000,1.4125000,-0.0017753,-0.0004113,-0.1002496,-0.0017753,-0.0021288,-0.0034599
1.4150000,1.4150000,1.4150000,-0.0017562,-0.0004091,-0.0997111,-0.0017562,-0.0021097,-0.0034187
1.4175000,1.4175000,1.4175000,-0.0017373,-0.0004070,-0.0991765,-0.0017373,-0.0020909,-0.0033780
1.4200000,1.4200000,1.4200000,-0.0017187,-0.0004048,-0.0986457,-0.0017187,-0.0020724,-0.0033379
1.4225000,1.4225000,1.4225000,-0.0017002,-0.0004027,-0.0981187,-0.0017002,-0.0020540,-0.0032983
1.4250000,1.4250000,1.4250000,-0.0016821,-0.0004006,-0.0975954,-0.0016821,-0.0020359,-0.0032592
1.4275000,1.4275000,1.4275000,-0.0016641,-0.0003985,-0.0970759,-0.0016641,-0.0020179,-0.0032206
1.4300000,1.4300000,1.4300000,-0.0016464,-0.0003964,-0.0965601,-0.0016464,-0.0020002,-0.0031825
1.4325000,1.4325000,1.4325000,-0.0016288,-0.0003944,-0.0960480,-0.0016288,-0.0019826,-0.0031449
1.4350000,1.4350000,1.4350000,-0.0016115,-0.0003923,-0.0955394,-0.0016115,-0.0019653,-0.0031078
1.4375000,1.4375000,1.4375000,-0.0015945,-0.0003903,-0.0950345,-0.0015945,-0.0019481,-0.0030712
1.4400000,1.4400000,1.4400000,-0.0015776,-0.0003882,-0.0945331,-0.0015776,-0.0019312,-0.0030350
1.4425000,1.4425000,1.4425000,-0.0015609,-0.0003862,-0.0940353,-0.0015609,-0.0019144,-0.0029993
1.4450000,1.4450000,1.4450000,-0.0015445,-0.0003842,-0.0935410,-0.0015445,-0.0018978,-0.0029641
1.4475000,1.4475000,1.4475000,-0.0015282,-0.0003823,-0.0930501,-0.0015282,-0.0018814,-0.0029293
1.4500000,1.4500000,1.4500000,-0.0015122,-0.0003803,-0.0925627,-0.0015122,-0.0018652,-0.0028950
1.4525000,1.4525000,1.4525000,-0.0014963,-0.0003783,-0.0920787,-0.0014963,-0.0018492,-0.0028611
1.4550000,1.4550000,1.4550000,-0.0014806,-0.0003764,-0.0915981,-0.0014806,-0.0018333,-0.0028276
1.4575000,1.4575000,1.4575000,-0.0014652,-0.0003745,-0.0911208,-0.0014652,-0.0018176,-0.0027946
1.4600000,1.4600000,1.4600000,-0.0014499,-0.0003726,-0.0906468,-0.0014499,-0.0018021,-0.0027620
1.4625000,1.4625000,1.4625000,-0.0014348,-0.0003707,-0.0901762,-0.0014348,-0.0017868,-0.0027298
1.4650000,1.4650000,1.4650000,-0.0014199,-0.0003688,-0.0897088,-0.0014199,-0.0017716,-0.0026980
1.4675000,1.4675000,1.4675000,-0.0014051,-0.0003669,-0.0892446,-0.0014051,-0.0017566,-0.0026666
1.4700000,1.4700000,1.4700000,-0.0013906,-0.0003650,-0.0887837,-0.0013906,-0.0017418,-0.0026356
1.4725000,1.4725000,1.4725000,-0.0013762,-0.0003632,-0.0883259,-0.0013762,-0.0017271,-0.0026050
1.4750000,1.4750000,1.4750000,-0.0013620,-0.0003613,-0.0878713,-0.0013620,-0.0017126,-0.0025748
1.4775000,1.4775000,1.4775000,-0.0013480,-0.0003595,-0.0874198,-0.0013480,-0.0016983,-0.0025450
1.4800000,1.4800000,1.4800000,-0.0013341,-0.0003577,-0.0869714,-0.0013341,-0.0016841,-0.0025156
1.4825000,1.4825000,1.4825000,-0.0013204,-0.0003559,-0.0865261,-0.0013204,-0.0016700,-0.0024865
1.4850000,1.4850000,1.4850000,-0.0013069,-0.0003541,-0.0860838,-0.0013069,-0.0016561,-0.0024578
1.4875000,1.4875000,1.4875000,-0.0012935,-0.0003523,-0.0856445,-0.0012935,-0.0016424,-0.0024294
1.4900000,1.4900000,1.4900000,-0.0012803,-0.0003506,-0.0852083,-0.0012803,-0.0016288,-0.0024014
1.4925000,1.4925000,1.4925000,-0.0012672,-0.0003488,-0.0847750,-0.0012672,-0.0016154,-0.0023738
1.4950000,1.4950000,1.4950000,-0.0012543,-0.0003471,-0.0843446,-0.0012543,-0.0016021,-0.0023465
1.4975000,1.4975000,1.4975000,-0.0012416,-0.0003453,-0.0839172,-0.0012416,-0.0015889,-0.0023195
1.5000000,1.5000000,1.5000000,-0.0012290,-0.0003436,-0.0834926,-0.0012290,-0.0015759,-0.0022929
1.5025000,1.5025000,1.5025000,-0.0012166,-0.0003419,-0.0830710,-0.0012166,-0.0015630,-0.0022666
1.5050000,1.5050000,1.5050000,-0.0012043,-0.0003402,-0.0826521,-0.0012043,-0.0015502,-0.0022406
1.5075000,1.5075000,1.5075000,-0.0011921,-0.0003385,-0.0822361,-0.0011921,-0.0015376,-0.0022150
1.5100000,1.5100000,1.5100000,-0.0011801,-0.0003369,-0.0818229,-0.0011801,-0.0015252,-0.0021896
1.5125000,1.5125000,1.5125000,-0.0011682,-0.0003352,-0.0814125,-0.0011682,-0.0015128,-0.0021646
1.5150000,1.5150000,1.5150000,-0.0011565,-0.0003335,-0.0810048,-0.0011565,-0.0015006,-0.0021399
1.5175000,1.5175000,1.5175000,-0.0011449,-0.0003319,-0.0805998,-0.0011449,-0.0014885,-0.0021155
1.5200000,1.5200000,1.5200000,-0.0011334,-0.0003303,-0.0801975,-0.0011334,-0.0014765,-0.0020914
1.5225000,1.5225000,1.5225000,-0.0011221,-0.0003287,-0.0797980,-0.0011221,-0.0014647,-0.0020676
1.5250000,1.5250000,1.5250000,-0.0011109,-0.0003270,-0.0794010,-0.0011109,-0.0014530,-0.0020441
1.5275000,1.5275000,1.5275000,-0.0010999,-0.0003254,-0.0790068,-0.0010999,-0.0014414,-0.0020208
1.5300000,1.5300000,1.5300000,-0.0010889,-0.0003239,-0.0786151,-0.0010889,-0.0014299,-0.0019979
1.5325000,1.5325000,1.5325000,-0.0010781,-0.0003223,-0.0782260,-0.0010781,-0.0014186,-0.0019752
1.5350000,1.5350000,1.5350000,-0.0010675,-0.0003207,-0.0778395,-0.0010675,-0.0014074,-0.0019528
1.5375000,1.5375000,1.5375000,-0.0010569,-0.0003192,-0.0774555,-0.0010569,-0.0013962,-0.0019307
1.5400000,1.5400000,1.5400000,-0.0010465,-0.0003176,-0.0770741,-0.0010465,-0.0013852,-0.0019089
1.5425000,1.5425000,1.5425000,-0.0010362,-0.0003161,-0.0766952,-0.0010362,-0.0013743,-0.0018873
1.5450000,1.5450000,1.5450000,-0.0010260,-0.0003145,-0.0763188,-0.0010260,-0.0013636,-0.0018660
1.5475000,1.5475000,1.5475000,-0.0010159,-0.0003130,-0.0759448,-0.0010159,-0.0013529,-0.0018449
1.5500000,1.5500000,1.5500000,-0.0010059,-0.0003115,-0.0755733,-0.0010059,-0.0013423,-0.0018241
1.5525000,1.5525000,1.5525000,-0.0009961,-0.0003100,-0.0752042,-0.0009961,-0.0013319,-0.0018036
1.5550000,1.5550000,1.5550000,-0.0009863,-0.0003085,-0.0748375,-0.0009863,-0.0013216,-0.0017833
1.5575000,1.5575000,1.5575000,-0.0009767,-0.0003071,-0.0744732,-0.0009767,-0.0013113,-0.0017632
1.5600000,1.5600000,1.5600000,-0.0009672,-0.0003056,-0.0741113,-0.0009672,-0.0013012,-0.0017434
1.5625000,1.5625000,1.5625000,-0.0009578,-0.0003041,-0.0737517,-0.0009578,-0.0012911,-0.0017238
1.5650000,1.5650000,1.5650000,-0.0009485,-0.0003027,-0.0733945,-0.0009485,-0.0012812,-0.0017045
1.5675000,1.5675000,1.5675000,-0.0009393,-0.0003012,-0.0730395,-0.0009393,-0.0012714,-0.0016854
1.5700000,1.5700000,1.5700000,-0.0009302,-0.0002998,-0.0726869,-0.0009302,-0.0012617,-0.0016665
1.5725000,1.5725000,1.5725000,-0.0009212,-0.0002984,-0.0723365,-0.0009212,-0.0012520,-0.0016478
1.5750000,1.5750000,1.5750000,-0.0009123,-0.0002970,-0.0719884,-0.0009123,-0.0012425,-0.0016294
1.5775000,1.5775000,1.5775000,-0.0009035,-0.0002956,-0.0716425,-0.0009035,-0.0012330,-0.0016112
1.5800000,1.5800000,1.5800000,-0.0008949,-0.0002942,-0.0712989,-0.0008949,-0.0012237,-0.0015932
1.5825000,1.5825000,1.5825000,-0.0008863,-0.0002928,-0.0709574,-0.0008863,-0.0012144,-0.0015754
1.5850000,1.5850000,1.5850000,-0.0008778,-0.0002914,-0.0706181,-0.0008778,-0.0012053,-0.0015578
1.5875000,1.5875000,1.5875000,-0.0008694,-0.0002900,-0.0702810,-0.0008694,-0.0011962,-0.0015404
1.5900000,1.5900000,1.5900000,-0.0008611,-0.0002887,-0.0699460,-0.0008611,-0.0011872,-0.0015233
1.5925000,1.5925000,1.5925000,-0.0008529,-0.0002873,-0.0696132,-0.0008529,-0.0011783,-0.0015063
1.5950000,1.5950000,1.5950000,-0.0008447,-0.0002860,-0.0692825,-0.0008447,-0.0011695,-0.0014896
1.5975000,1.5975000,1.5975000,-0.0008367,-0.0002846,-0.0689539,-0.0008367,-0.0011608,-0.0014730
