# r[nm],d[nm],daligned[nm],U(d)[kj/mol],V(d)[e/nm],Uslab(d)[kJ/mol],UC(d)[kJ/mol],UK(d)[kJ/mol],UCl(d)[kJ/mol]
0.1875000,0.1875000,0.1875000,1752.7304531,-0.4751751,182.4553054,1752.7304531,1104.6136411,inf
0.1900000,0.1900000,0.1900000,1516.3763374,-0.4626982,158.1697462,1516.3763374,954.4756655,inf
0.1925000,0.1925000,0.1925000,1314.0001065,-0.4506468,137.0302112,1314.0001065,826.0053283,inf
0.1950000,0.1950000,0.1950000,1140.3876764,-0.4390037,118.6091939,1140.3876764,715.8715434,inf
0.1975000,0.1975000,0.1975000,991.1768734,-0.4277520,102.5410933,991.1768734,621.2880089,inf
0.2000000,0.2000000,0.2000000,862.7098824,-0.4168758,88.5126188,862.7098824,539.9187856,inf
0.2025000,0.2025000,0.2025000,751.9126633,-0.4063600,76.2547981,751.9126633,469.8011157,inf
0.2050000,0.2050000,0.2050000,656.1961524,-0.3961902,65.5362961,656.1961524,409.2821420,inf
0.2075000,0.2075000,0.2075000,573.3751108,-0.3863525,56.1578105,573.3751108,356.9668646,inf
0.2100000,0.2100000,0.2100000,501.6012904,-0.3768337,47.9473572,501.6012904,311.6752363,inf
0.2125000,0.2125000,0.2125000,439.3082379,-0.3676212,40.7562936,439.3082379,272.4067696,inf
0.2150000,0.2150000,0.2150000,385.1655778,-0.3587028,34.4559555,385.1655778,238.3113775,1646.9329129
0.2175000,0.2175000,0.2175000,338.0410578,-0.3500665,28.9348086,338.0410578,208.6654045,1450.4775478
0.2200000,0.2200000,0.2200000,296.9690092,-0.3417005,24.0960299,296.9690092,182.8519250,1278.9010964
0.2225000,0.2225000,0.2225000,261.1241606,-0.3335929,19.8554504,261.1241606,160.3444759,1128.8420346
0.2250000,0.2250000,0.2250000,229.7999376,-0.3257317,16.1398024,229.7999376,140.6934841,997.4230487
0.2275000,0.2275000,0.2275000,202.3904949,-0.3181051,12.8852236,202.3904949,123.5147873,882.1769390
0.2300000,0.2300000,0.2300000,178.3757969,-0.3107017,10.0359766,178.3757969,108.4798125,780.9845172
0.2325000,0.2325000,0.2325000,157.3091302,-0.3035113,7.5433518,157.3091302,95.3071293,692.0224513
0.2350000,0.2350000,0.2350000,138.8065297,-0.2965247,5.3647231,138.8065297,83.7552089,613.7193711
0.2375000,0.2375000,0.2375000,122.5377164,-0.2897343,3.4627359,122.5377164,73.6162673,544.7188466
0.2400000,0.2400000,0.2400000,108.2182747,-0.2831338,1.8046072,108.2182747,64.7110831,483.8480894
0.2425000,0.2425000,0.2425000,95.6028943,-0.2767179,0.3615238,95.6028943,56.8846685,430.0914364
0.2450000,0.2450000,0.2450000,84.4795655,-0.2704821,-0.8918761,84.4795655,50.0026672,382.5678531
0.2475000,0.2475000,0.2475000,74.6646359,-0.2644222,-1.9779500,74.6646359,43.9483540,340.5118412
0.2500000,0.2500000,0.2500000,65.9986363,-0.2585339,-2.9164409,65.9986363,38.6201271,303.2572499
0.2525000,0.2525000,0.2525000,58.3427748,-0.2528129,-3.7248174,58.3427748,33.9293995,270.2235680
0.2550000,0.2550000,0.2550000,51.5759980,-0.2472546,-4.4185695,51.5759980,29.7988154,240.9043193
0.2575000,0.2575000,0.2575000,45.5925226,-0.2418542,-5.0114633,45.5925226,26.1607323,214.8572183
0.2600000,0.2600000,0.2600000,40.2997539,-0.2366064,-5.5157525,40.2997539,22.9559237,191.6957728
0.2625000,0.2625000,0.2625000,35.6165192,-0.2315058,-5.9423501,35.6165192,20.1324660,171.0820589
0.2650000,0.2650000,0.2650000,31.4715621,-0.2265465,-6.3009647,31.4715621,17.6447778,152.7204489
0.2675000,0.2675000,0.2675000,27.8022513,-0.2217223,-6.6002120,27.8022513,15.4527898,136.3521243
0.2700000,0.2700000,0.2700000,24.5534695,-0.2170267,-6.8477136,24.5534695,13.5212230,121.7502619
0.2725000,0.2725000,0.2725000,21.6766537,-0.2124525,-7.0501939,21.6766537,11.8189627,108.7158148
0.2750000,0.2750000,0.2750000,19.1289641,-0.2079923,-7.2135789,19.1289641,10.3185164,97.0738354
0.2775000,0.2775000,0.2775000,16.8725614,-0.2036380,-7.3430944,16.8725614,8.9955498,86.6702900
0.2800000,0.2800000,0.2800000,14.8739769,-0.1993809,-7.4433600,14.8739769,7.8284959,77.3693168
0.2825000,0.2825000,0.2825000,13.1035630,-0.1952116,-7.5184712,13.1035630,6.7982329,69.0508744
0.2850000,0.2850000,0.2850000,11.5350152,-0.1911207,-7.5720692,11.5350152,5.8878241,61.6087285
0.2875000,0.2875000,0.2875000,10.1449583,-0.1870989,-7.6073939,10.1449583,5.0823106,54.9487270
0.2900000,0.2900000,0.2900000,8.9125925,-0.1831379,-7.6273215,8.9125925,4.3685433,48.9873165
0.2925000,0.2925000,0.2925000,7.8193964,-0.1792312,-7.6343857,7.8193964,3.7350401,43.6502629
0.2950000,0.2950000,0.2950000,6.8488814,-0.1753750,-7.6307851,6.8488814,3.1718522,38.8715415
0.2975000,0.2975000,0.2975000,5.9863918,-0.1715689,-7.6183853,5.9863918,2.6704296,34.5923707
0.3000000,0.3000000,0.3000000,5.2189424,-0.1678157,-7.5987238,5.2189424,2.2234793,30.7603676
0.3025000,0.3025000,0.3025000,4.5350838,-0.1641210,-7.5730259,4.5350838,1.8248141,27.3288074
0.3050000,0.3050000,0.3050000,3.9247833,-0.1604928,-7.5422318,3.9247833,1.4691973,24.2559737
0.3075000,0.3075000,0.3075000,3.3793122,-0.1569397,-7.5070342,3.3793122,1.1521885,21.5045855
0.3100000,0.3100000,0.3100000,2.8911306,-0.1534703,-7.4679206,2.8911306,0.8699962,19.0412934
0.3125000,0.3125000,0.3125000,2.4537677,-0.1500917,-7.4252176,2.4537677,0.6193460,16.8362340
0.3150000,0.3150000,0.3150000,2.0616949,-0.1468088,-7.3791346,2.0616949,0.3973661,14.8626367
0.3175000,0.3175000,0.3175000,1.7101961,-0.1436237,-7.3298064,1.7101961,0.2014948,13.0964758
0.3200000,0.3200000,0.3200000,1.3952382,-0.1405355,-7.2773288,1.3952382,0.0294083,11.5161644
0.3225000,0.3225000,0.3225000,1.1133488,-0.1375398,-7.2217859,1.1133488,-0.1210314,10.1022848
0.3250000,0.3250000,0.3250000,0.8615054,-0.1346296,-7.1632664,0.8615054,-0.2518130,8.8373536
0.3275000,0.3275000,0.3275000,0.6370400,-0.1317950,-7.1018693,0.6370400,-0.3648000,7.7056176
0.3300000,0.3300000,0.3300000,0.4375621,-0.1290244,-7.0377052,0.4375621,-0.4617445,6.6928792
0.3325000,0.3325000,0.3325000,0.2608982,-0.1263052,-6.9708943,0.2608982,-0.5442951,5.7863480
0.3350000,0.3350000,0.3350000,0.1050482,-0.1236248,-6.9015688,0.1050482,-0.6139996,4.9745155
0.3375000,0.3375000,0.3375000,-0.0318470,-0.1209710,-6.8298793,-0.0318470,-0.6723048,4.2470506
0.3400000,0.3400000,0.3400000,-0.1515275,-0.1183331,-6.7560091,-0.1515275,-0.7205567,3.5947107
0.3425000,0.3425000,0.3425000,-0.2556284,-0.1157018,-6.6801917,-0.2556284,-0.7600007,3.0092631
0.3450000,0.3450000,0.3450000,-0.3456893,-0.1130700,-6.6027274,-0.3456893,-0.7917847,2.4834140
0.3475000,0.3475000,0.3475000,-0.4231586,-0.1104319,-6.5239882,-0.4231586,-0.8169630,2.0107383
0.3500000,0.3500000,0.3500000,-0.4893973,-0.1077830,-6.4444080,-0.4893973,-0.8365008,1.5856084
0.3525000,0.3525000,0.3525000,-0.5456796,-0.1051198,-6.3644623,-0.5456796,-0.8512803,1.2031185
0.3550000,0.3550000,0.3550000,-0.5931954,-0.1024389,-6.2846470,-0.5931954,-0.8621068,0.8590060
0.3575000,0.3575000,0.3575000,-0.6330510,-0.0997370,-6.2054649,-0.6330510,-0.8697163,0.5495696
0.3600000,0.3600000,0.3600000,-0.6662700,-0.0970109,-6.1274205,-0.6662700,-0.8747843,0.2715885
0.3625000,0.3625000,0.3625000,-0.6937942,-0.0942581,-6.0510147,-0.6937942,-0.8779323,0.0222458
0.3650000,0.3650000,0.3650000,-0.7164860,-0.0914769,-5.9767348,-0.7164860,-0.8797310,-0.2009411
0.3675000,0.3675000,0.3675000,-0.7351319,-0.0886669,-5.9050343,-0.7351319,-0.8806979,-0.4001807
0.3700000,0.3700000,0.3700000,-0.7504488,-0.0858284,-5.8363069,-0.7504488,-0.8812882,-0.5774586
0.3725000,0.3725000,0.3725000,-0.7630902,-0.0829630,-5.7708599,-0.7630902,-0.8818825,-0.7345783
0.3750000,0.3750000,0.3750000,-0.7736515,-0.0800733,-5.7088885,-0.7736515,-0.8827733,-0.8731959
0.3775000,0.3775000,0.3775000,-0.7826720,-0.0771642,-5.6504536,-0.7826720,-0.8841539,-0.9948473
0.3800000,0.3800000,0.3800000,-0.7906320,-0.0742431,-5.5954657,-0.7906320,-0.8861128,-1.1009703
0.3825000,0.3825000,0.3825000,-0.7979465,-0.0713205,-5.5436823,-0.7979465,-0.8886367,-1.1929224
0.3850000,0.3850000,0.3850000,-0.8049568,-0.0684101,-5.4947242,-0.8049568,-0.8916199,-1.2719937
0.3875000,0.3875000,0.3875000,-0.8119213,-0.0655286,-5.4481087,-0.8119213,-0.8948813,-1.3394158
0.3900000,0.3900000,0.3900000,-0.8190089,-0.0626944,-5.4032963,-0.8190089,-0.8981852,-1.3963667
0.3925000,0.3925000,0.3925000,-0.8262973,-0.0599260,-5.3597355,-0.8262973,-0.9012631,-1.4439710
0.3950000,0.3950000,0.3950000,-0.8337767,-0.0572411,-5.3169020,-0.8337767,-0.9038350,-1.4832978
0.3975000,0.3975000,0.3975000,-0.8413596,-0.0546548,-5.2743258,-0.8413596,-0.9056277,-1.5153562
0.4000000,0.4000000,0.4000000,-0.8488947,-0.0521785,-5.2316103,-0.8488947,-0.9063903,-1.5410908
0.4025000,0.4025000,0.4025000,-0.8561843,-0.0498202,-5.1884450,-0.8561843,-0.9059062,-1.5613777
0.4050000,0.4050000,0.4050000,-0.8630025,-0.0475836,-5.1446116,-0.8630025,-0.9040041,-1.5770225
0.4075000,0.4075000,0.4075000,-0.8691118,-0.0454695,-5.0999837,-0.8691118,-0.9005682,-1.5887601
0.4100000,0.4100000,0.4100000,-0.8742788,-0.0434758,-5.0545219,-0.8742788,-0.8955469,-1.5972561
0.4125000,0.4125000,0.4125000,-0.8782879,-0.0415988,-5.0082691,-0.8782879,-0.8889598,-1.6031105
0.4150000,0.4150000,0.4150000,-0.8809532,-0.0398333,-4.9613482,-0.8809532,-0.8808978,-1.6068608
0.4175000,0.4175000,0.4175000,-0.8821308,-0.0381732,-4.9139612,-0.8821308,-0.8715164,-1.6089855
0.4200000,0.4200000,0.4200000,-0.8817298,-0.0366117,-4.8663815,-0.8817298,-0.8610211,-1.6099045
0.4225000,0.4225000,0.4225000,-0.8797209,-0.0351409,-4.8189344,-0.8797209,-0.8496463,-1.6099790
0.4250000,0.4250000,0.4250000,-0.8761413,-0.0337524,-4.7719618,-0.8761413,-0.8376347,-1.6095082
0.4275000,0.4275000,0.4275000,-0.8710916,-0.0324374,-4.7257755,-0.8710916,-0.8252190,-1.6087254
0.4300000,0.4300000,0.4300000,-0.8647259,-0.0311870,-4.6806132,-0.8647259,-0.8126101,-1.6077955
0.4325000,0.4325000,0.4325000,-0.8572349,-0.0299938,-4.6366113,-0.8572349,-0.7999926,-1.6068134
0.4350000,0.4350000,0.4350000,-0.8488272,-0.0288515,-4.5938053,-0.8488272,-0.7875246,-1.6058060
0.4375000,0.4375000,0.4375000,-0.8397114,-0.0277559,-4.5521535,-0.8397114,-0.7753406,-1.6047377
0.4400000,0.4400000,0.4400000,-0.8300836,-0.0267044,-4.5115740,-0.8300836,-0.7635551,-1.6035190
0.4425000,0.4425000,0.4425000,-0.8201208,-0.0256958,-4.4719752,-0.8201208,-0.7522671,-1.6020168
0.4450000,0.4450000,0.4450000,-0.8099795,-0.0247290,-4.4332679,-0.8099795,-0.7415640,-1.6000676
0.4475000,0.4475000,0.4475000,-0.7997988,-0.0238028,-4.3953581,-0.7997988,-0.7315272,-1.5974914
0.4500000,0.4500000,0.4500000,-0.7897043,-0.0229147,-4.3581290,-0.7897043,-0.7222362,-1.5941071
0.4525000,0.4525000,0.4525000,-0.7798134,-0.0220610,-4.3214241,-0.7798134,-0.7137698,-1.5897476
0.4550000,0.4550000,0.4550000,-0.7702390,-0.0212369,-4.2850431,-0.7702390,-0.7062024,-1.5842749
0.4575000,0.4575000,0.4575000,-0.7610934,-0.0204363,-4.2487508,-0.7610934,-0.6995973,-1.5775919
0.4600000,0.4600000,0.4600000,-0.7524890,-0.0196532,-4.2122997,-0.7524890,-0.6939964,-1.5696502
0.4625000,0.4625000,0.4625000,-0.7445363,-0.0188821,-4.1754560,-0.7445363,-0.6894125,-1.5604512
0.4650000,0.4650000,0.4650000,-0.7373381,-0.0181189,-4.1380232,-0.7373381,-0.6858256,-1.5500418
0.4675000,0.4675000,0.4675000,-0.7309807,-0.0173622,-4.0998554,-0.7309807,-0.6831836,-1.5385045
0.4700000,0.4700000,0.4700000,-0.7255249,-0.0166134,-4.0608597,-0.7255249,-0.6814070,-1.5259455
0.4725000,0.4725000,0.4725000,-0.7209985,-0.0158773,-4.0209901,-0.7209985,-0.6803961,-1.5124833
0.4750000,0.4750000,0.4750000,-0.7173924,-0.0151617,-3.9802365,-0.7173924,-0.6800386,-1.4982387
0.4775000,0.4775000,0.4775000,-0.7146614,-0.0144768,-3.9386152,-0.7146614,-0.6802175,-1.4833305
0.4800000,0.4800000,0.4800000,-0.7127287,-0.0138343,-3.8961603,-0.7127287,-0.6808186,-1.4678744
0.4825000,0.4825000,0.4825000,-0.7114931,-0.0132462,-3.8529192,-0.7114931,-0.6817358,-1.4519856
0.4850000,0.4850000,0.4850000,-0.7108390,-0.0127228,-3.8089497,-0.7108390,-0.6828743,-1.4357841
0.4875000,0.4875000,0.4875000,-0.7106463,-0.0122717,-3.7643186,-0.7106463,-0.6841507,-1.4193999
0.4900000,0.4900000,0.4900000,-0.7108006,-0.0118964,-3.7191010,-0.7108006,-0.6854899,-1.4029757
0.4925000,0.4925000,0.4925000,-0.7112001,-0.0115956,-3.6733785,-0.7112001,-0.6868201,-1.3866668
0.4950000,0.4950000,0.4950000,-0.7117600,-0.0113640,-3.6272381,-0.7117600,-0.6880681,-1.3706368
0.4975000,0.4975000,0.4975000,-0.7124122,-0.0111926,-3.5807700,-0.7124122,-0.6891569,-1.3550488
0.5000000,0.5000000,0.5000000,-0.7131004,-0.0110705,-3.5340659,-0.7131004,-0.6900063,-1.3400555
0.5025000,0.5025000,0.5025000,-0.7137745,-0.0109863,-3.4872169,-0.7137745,-0.6905384,-1.3257885
0.5050000,0.5050000,0.5050000,-0.7143837,-0.0109297,-3.4403119,-0.7143837,-0.6906835,-1.3123490
0.5075000,0.5075000,0.5075000,-0.7148725,-0.0108916,-3.3934357,-0.7148725,-0.6903854,-1.2998018
0.5100000,0.5100000,0.5100000,-0.7151799,-0.0108652,-3.3466684,-0.7151799,-0.6896039,-1.2881715
0.5125000,0.5125000,0.5125000,-0.7152422,-0.0108458,-3.3000844,-0.7152422,-0.6883123,-1.2774434
0.5150000,0.5150000,0.5150000,-0.7149976,-0.0108301,-3.2537517,-0.7149976,-0.6864936,-1.2675669
0.5175000,0.5175000,0.5175000,-0.7143903,-0.0108168,-3.2077320,-0.7143903,-0.6841346,-1.2584629
0.5200000,0.5200000,0.5200000,-0.7133728,-0.0108056,-3.1620803,-0.7133728,-0.6812221,-1.2500327
0.5225000,0.5225000,0.5225000,-0.7119060,-0.0107974,-3.1168454,-0.7119060,-0.6777412,-1.2421690
0.5250000,0.5250000,0.5250000,-0.7099568,-0.0107937,-3.0720697,-0.7099568,-0.6736760,-1.2347659
0.5275000,0.5275000,0.5275000,-0.7074963,-0.0107962,-3.0277901,-0.7074963,-0.6690123,-1.2277265
0.5300000,0.5300000,0.5300000,-0.7044981,-0.0108062,-2.9840381,-0.7044981,-0.6637424,-1.2209673
0.5325000,0.5325000,0.5325000,-0.7009373,-0.0108249,-2.9408399,-0.7009373,-0.6578694,-1.2144185
0.5350000,0.5350000,0.5350000,-0.6967927,-0.0108522,-2.8982176,-0.6967927,-0.6514108,-1.2080214
0.5375000,0.5375000,0.5375000,-0.6920485,-0.0108875,-2.8561889,-0.6920485,-0.6443995,-1.2017241
0.5400000,0.5400000,0.5400000,-0.6866983,-0.0109288,-2.8147678,-0.6866983,-0.6368817,-1.1954773
0.5425000,0.5425000,0.5425000,-0.6807487,-0.0109736,-2.7739652,-0.6807487,-0.6289125,-1.1892311
0.5450000,0.5450000,0.5450000,-0.6742206,-0.0110181,-2.7337888,-0.6742206,-0.6205501,-1.1829339
0.5475000,0.5475000,0.5475000,-0.6671497,-0.0110586,-2.6942440,-0.6671497,-0.6118508,-1.1765315
0.5500000,0.5500000,0.5500000,-0.6595833,-0.0110910,-2.6553335,-0.6595833,-0.6028648,-1.1699680
0.5525000,0.5525000,0.5525000,-0.6515758,-0.0111116,-2.6170585,-0.6515758,-0.5936349,-1.1631866
0.5550000,0.5550000,0.5550000,-0.6431833,-0.0111177,-2.5794179,-0.6431833,-0.5841962,-1.1561298
0.5575000,0.5575000,0.5575000,-0.6344591,-0.0111074,-2.5424096,-0.6344591,-0.5745776,-1.1487402
0.5600000,0.5600000,0.5600000,-0.6254504,-0.0110800,-2.5060298,-0.6254504,-0.5648036,-1.1409616
0.5625000,0.5625000,0.5625000,-0.6161969,-0.0110358,-2.4702737,-0.6161969,-0.5548960,-1.1327402
0.5650000,0.5650000,0.5650000,-0.6067310,-0.0109760,-2.4351357,-0.6067310,-0.5448752,-1.1240270
0.5675000,0.5675000,0.5675000,-0.5970792,-0.0109023,-2.4006090,-0.5970792,-0.5347620,-1.1147801
0.5700000,0.5700000,0.5700000,-0.5872638,-0.0108169,-2.3666866,-0.5872638,-0.5245773,-1.1049684
0.5725000,0.5725000,0.5725000,-0.5773044,-0.0107220,-2.3333604,-0.5773044,-0.5143426,-1.0945738
0.5750000,0.5750000,0.5750000,-0.5672196,-0.0106198,-2.3006223,-0.5672196,-0.5040799,-1.0835934
0.5775000,0.5775000,0.5775000,-0.5570284,-0.0105124,-2.2684636,-0.5570284,-0.4938116,-1.0720395
0.5800000,0.5800000,0.5800000,-0.5467499,-0.0104014,-2.2368751,-0.5467499,-0.4835594,-1.0599385
0.5825000,0.5825000,0.5825000,-0.5364045,-0.0102883,-2.2058477,-0.5364045,-0.4733447,-1.0473275
0.5850000,0.5850000,0.5850000,-0.5260131,-0.0101744,-2.1753720,-0.5260131,-0.4631877,-1.0342506
0.5875000,0.5875000,0.5875000,-0.5155971,-0.0100606,-2.1454384,-0.5155971,-0.4531074,-1.0207550
0.5900000,0.5900000,0.5900000,-0.5051781,-0.0099475,-2.1160373,-0.5051781,-0.4431213,-1.0068873
0.5925000,0.5925000,0.5925000,-0.4947771,-0.0098357,-2.0871589,-0.4947771,-0.4332453,-0.9926915
0.5950000,0.5950000,0.5950000,-0.4844147,-0.0097256,-2.0587937,-0.4844147,-0.4234935,-0.9782075
0.5975000,0.5975000,0.5975000,-0.4741103,-0.0096172,-2.0309318,-0.4741103,-0.4138784,-0.9634709
0.6000000,0.6000000,0.6000000,-0.4638823,-0.0095109,-2.0035637,-0.4638823,-0.4044106,-0.9485138
0.6025000,0.6025000,0.6025000,-0.4537475,-0.0094066,-1.9766798,-0.4537475,-0.3950994,-0.9333651
0.6050000,0.6050000,0.6050000,-0.4437210,-0.0093043,-1.9502707,-0.4437210,-0.3859524,-0.9180519
0.6075000,0.6075000,0.6075000,-0.4338165,-0.0092040,-1.9243268,-0.4338165,-0.3769757,-0.9026003
0.6100000,0.6100000,0.6100000,-0.4240462,-0.0091055,-1.8988390,-0.4240462,-0.3681742,-0.8870361
0.6125000,0.6125000,0.6125000,-0.4144204,-0.0090090,-1.8737981,-0.4144204,-0.3595517,-0.8713848
0.6150000,0.6150000,0.6150000,-0.4049481,-0.0089142,-1.8491951,-0.4049481,-0.3511108,-0.8556726
0.6175000,0.6175000,0.6175000,-0.3956368,-0.0088210,-1.8250211,-0.3956368,-0.3428532,-0.8399256
0.6200000,0.6200000,0.6200000,-0.3864928,-0.0087295,-1.8012674,-0.3864928,-0.3347797,-0.8241698
0.6225000,0.6225000,0.6225000,-0.3775209,-0.0086394,-1.7779253,-0.3775209,-0.3268905,-0.8084313
0.6250000,0.6250000,0.6250000,-0.3687251,-0.0085508,-1.7549865,-0.3687251,-0.3191850,-0.7927355
0.6275000,0.6275000,0.6275000,-0.3601081,-0.0084636,-1.7324427,-0.3601081,-0.3116621,-0.7771068
0.6300000,0.6300000,0.6300000,-0.3516719,-0.0083777,-1.7102857,-0.3516719,-0.3043203,-0.7615688
0.6325000,0.6325000,0.6325000,-0.3434176,-0.0082930,-1.6885076,-0.3434176,-0.2971576,-0.7461434
0.6350000,0.6350000,0.6350000,-0.3353455,-0.0082096,-1.6671006,-0.3353455,-0.2901716,-0.7308512
0.6375000,0.6375000,0.6375000,-0.3274554,-0.0081272,-1.6460571,-0.3274554,-0.2833597,-0.7157112
0.6400000,0.6400000,0.6400000,-0.3197465,-0.0080460,-1.6253695,-0.3197465,-0.2767192,-0.7007404
0.6425000,0.6425000,0.6425000,-0.3122175,-0.0079659,-1.6050306,-0.3122175,-0.2702468,-0.6859544
0.6450000,0.6450000,0.6450000,-0.3048668,-0.0078868,-1.5850332,-0.3048668,-0.2639394,-0.6713667
0.6475000,0.6475000,0.6475000,-0.2976923,-0.0078087,-1.5653703,-0.2976923,-0.2577937,-0.6569892
0.6500000,0.6500000,0.6500000,-0.2906916,-0.0077316,-1.5460350,-0.2906916,-0.2518062,-0.6428324
0.6525000,0.6525000,0.6525000,-0.2838622,-0.0076554,-1.5270206,-0.2838622,-0.2459735,-0.6289049
0.6550000,0.6550000,0.6550000,-0.2772013,-0.0075802,-1.5083206,-0.2772013,-0.2402920,-0.6152140
0.6575000,0.6575000,0.6575000,-0.2707058,-0.0075059,-1.4899285,-0.2707058,-0.2347581,-0.6017655
0.6600000,0.6600000,0.6600000,-0.2643728,-0.0074324,-1.4718382,-0.2643728,-0.2293684,-0.5885640
0.6625000,0.6625000,0.6625000,-0.2581989,-0.0073599,-1.4540434,-0.2581989,-0.2241192,-0.5756131
0.6650000,0.6650000,0.6650000,-0.2521810,-0.0072882,-1.4365382,-0.2521810,-0.2190069,-0.5629151
0.6675000,0.6675000,0.6675000,-0.2463155,-0.0072174,-1.4193168,-0.2463155,-0.2140282,-0.5504715
0.6700000,0.6700000,0.6700000,-0.2405993,-0.0071474,-1.4023733,-0.2405993,-0.2091794,-0.5382828
0.6725000,0.6725000,0.6725000,-0.2350288,-0.0070782,-1.3857023,-0.2350288,-0.2044573,-0.5263490
0.6750000,0.6750000,0.6750000,-0.2296006,-0.0070098,-1.3692984,-0.2296006,-0.1998584,-0.5146691
0.6775000,0.6775000,0.6775000,-0.2243113,-0.0069423,-1.3531560,-0.2243113,-0.1953794,-0.5032417
0.6800000,0.6800000,0.6800000,-0.2191576,-0.0068755,-1.3372701,-0.2191576,-0.1910170,-0.4920649
0.6825000,0.6825000,0.6825000,-0.2141361,-0.0068095,-1.3216356,-0.2141361,-0.1867681,-0.4811363
0.6850000,0.6850000,0.6850000,-0.2092434,-0.0067442,-1.3062475,-0.2092434,-0.1826296,-0.4704530
0.6875000,0.6875000,0.6875000,-0.2044762,-0.0066797,-1.2911009,-0.2044762,-0.1785984,-0.4600120
0.6900000,0.6900000,0.6900000,-0.1998314,-0.0066160,-1.2761910,-0.1998314,-0.1746715,-0.4498098
0.6925000,0.6925000,0.6925000,-0.1953057,-0.0065530,-1.2615134,-0.1953057,-0.1708461,-0.4398428
0.6950000,0.6950000,0.6950000,-0.1908961,-0.0064907,-1.2470633,-0.1908961,-0.1671192,-0.4301070
0.6975000,0.6975000,0.6975000,-0.1865993,-0.0064291,-1.2328365,-0.1865993,-0.1634881,-0.4205986
0.7000000,0.7000000,0.7000000,-0.1824125,-0.0063682,-1.2188285,-0.1824125,-0.1599502,-0.4113132
0.7025000,0.7025000,0.7025000,-0.1783326,-0.0063081,-1.2050352,-0.1783326,-0.1565028,-0.4022468
0.7050000,0.7050000,0.7050000,-0.1743569,-0.0062486,-1.1914523,-0.1743569,-0.1531433,-0.3933949
0.7075000,0.7075000,0.7075000,-0.1704824,-0.0061898,-1.1780760,-0.1704824,-0.1498693,-0.3847531
0.7100000,0.7100000,0.7100000,-0.1667064,-0.0061317,-1.1649022,-0.1667064,-0.1466784,-0.3763171
0.7125000,0.7125000,0.7125000,-0.1630263,-0.0060742,-1.1519270,-0.1630263,-0.1435682,-0.3680825
0.7150000,0.7150000,0.7150000,-0.1594394,-0.0060174,-1.1391468,-0.1594394,-0.1405364,-0.3600447
0.7175000,0.7175000,0.7175000,-0.1559432,-0.0059613,-1.1265578,-0.1559432,-0.1375809,-0.3521994
0.7200000,0.7200000,0.7200000,-0.1525351,-0.0059058,-1.1141564,-0.1525351,-0.1346995,-0.3445422
0.7225000,0.7225000,0.7225000,-0.1492128,-0.0058509,-1.1019391,-0.1492128,-0.1318900,-0.3370688
0.7250000,0.7250000,0.7250000,-0.1459740,-0.0057967,-1.0899024,-0.1459740,-0.1291506,-0.3297747
0.7275000,0.7275000,0.7275000,-0.1428162,-0.0057430,-1.0780431,-0.1428162,-0.1264791,-0.3226559
0.7300000,0.7300000,0.7300000,-0.1397373,-0.0056900,-1.0663578,-0.1397373,-0.1238738,-0.3157080
0.7325000,0.7325000,0.7325000,-0.1367351,-0.0056376,-1.0548433,-0.1367351,-0.1213326,-0.3089269
0.7350000,0.7350000,0.7350000,-0.1338075,-0.0055858,-1.0434964,-0.1338075,-0.1188540,-0.3023086
0.7375000,0.7375000,0.7375000,-0.1309525,-0.0055346,-1.0323141,-0.1309525,-0.1164360,-0.2958490
0.7400000,0.7400000,0.7400000,-0.1281680,-0.0054839,-1.0212933,-0.1281680,-0.1140771,-0.2895443
0.7425000,0.7425000,0.7425000,-0.1254522,-0.0054338,-1.0104312,-0.1254522,-0.1117755,-0.2833905
0.7450000,0.7450000,0.7450000,-0.1228031,-0.0053843,-0.9997248,-0.1228031,-0.1095298,-0.2773838
0.7475000,0.7475000,0.7475000,-0.1202189,-0.0053354,-0.9891713,-0.1202189,-0.1073382,-0.2715207
0.7500000,0.7500000,0.7500000,-0.1176978,-0.0052870,-0.9787680,-0.1176978,-0.1051994,-0.2657974
0.7525000,0.7525000,0.7525000,-0.1152382,-0.0052391,-0.9685122,-0.1152382,-0.1031119,-0.2602104
0.7550000,0.7550000,0.7550000,-0.1128382,-0.0051918,-0.9584012,-0.1128382,-0.1010743,-0.2547562
0.7575000,0.7575000,0.7575000,-0.1104964,-0.0051451,-0.9484325,-0.1104964,-0.0990852,-0.2494315
0.7600000,0.7600000,0.7600000,-0.1082111,-0.0050988,-0.9386036,-0.1082111,-0.0971433,-0.2442330
0.7625000,0.7625000,0.7625000,-0.1059808,-0.0050531,-0.9289118,-0.1059808,-0.0952473,-0.2391575
0.7650000,0.7650000,0.7650000,-0.1038041,-0.0050079,-0.9193550,-0.1038041,-0.0933960,-0.2342017
0.7675000,0.7675000,0.7675000,-0.1016793,-0.0049631,-0.9099306,-0.1016793,-0.0915881,-0.2293627
0.7700000,0.7700000,0.7700000,-0.0996053,-0.0049189,-0.9006364,-0.0996053,-0.0898225,-0.2246374
0.7725000,0.7725000,0.7725000,-0.0975805,-0.0048752,-0.8914701,-0.0975805,-0.0880980,-0.2200229
0.7750000,0.7750000,0.7750000,-0.0956037,-0.0048320,-0.8824294,-0.0956037,-0.0864136,-0.2155164
0.7775000,0.7775000,0.7775000,-0.0936736,-0.0047892,-0.8735123,-0.0936736,-0.0847681,-0.2111151
0.7800000,0.7800000,0.7800000,-0.0917889,-0.0047469,-0.8647165,-0.0917889,-0.0831606,-0.2068163
0.7825000,0.7825000,0.7825000,-0.0899484,-0.0047051,-0.8560401,-0.0899484,-0.0815899,-0.2026174
0.7850000,0.7850000,0.7850000,-0.0881510,-0.0046638,-0.8474808,-0.0881510,-0.0800552,-0.1985159
0.7875000,0.7875000,0.7875000,-0.0863956,-0.0046229,-0.8390369,-0.0863956,-0.0785555,-0.1945092
0.7900000,0.7900000,0.7900000,-0.0846809,-0.0045825,-0.8307062,-0.0846809,-0.0770898,-0.1905948
0.7925000,0.7925000,0.7925000,-0.0830059,-0.0045425,-0.8224869,-0.0830059,-0.0756573,-0.1867706
0.7950000,0.7950000,0.7950000,-0.0813696,-0.0045029,-0.8143771,-0.0813696,-0.0742571,-0.1830341
0.7975000,0.7975000,0.7975000,-0.0797710,-0.0044638,-0.8063749,-0.0797710,-0.0728884,-0.1793831
0.8000000,0.8000000,0.8000000,-0.0782091,-0.0044251,-0.7984786,-0.0782091,-0.0715502,-0.1758154
0.8025000,0.8025000,0.8025000,-0.0766829,-0.0043869,-0.7906864,-0.0766829,-0.0702420,-0.1723290
0.8050000,0.8050000,0.8050000,-0.0751915,-0.0043491,-0.7829966,-0.0751915,-0.0689628,-0.1689217
0.8075000,0.8075000,0.8075000,-0.0737340,-0.0043116,-0.7754074,-0.0737340,-0.0677119,-0.1655916
0.8100000,0.8100000,0.8100000,-0.0723095,-0.0042746,-0.7679172,-0.0723095,-0.0664886,-0.1623367
0.8125000,0.8125000,0.8125000,-0.0709172,-0.0042380,-0.7605243,-0.0709172,-0.0652922,-0.1591551
0.8150000,0.8150000,0.8150000,-0.0695562,-0.0042018,-0.7532273,-0.0695562,-0.0641220,-0.1560449
0.8175000,0.8175000,0.8175000,-0.0682258,-0.0041660,-0.7460245,-0.0682258,-0.0629773,-0.1530044
0.8200000,0.8200000,0.8200000,-0.0669250,-0.0041305,-0.7389143,-0.0669250,-0.0618576,-0.1500319
0.8225000,0.8225000,0.8225000,-0.0656533,-0.0040955,-0.7318953,-0.0656533,-0.0607620,-0.1471255
0.8250000,0.8250000,0.8250000,-0.0644099,-0.0040608,-0.7249660,-0.0644099,-0.0596902,-0.1442837
0.8275000,0.8275000,0.8275000,-0.0631940,-0.0040265,-0.7181250,-0.0631940,-0.0586414,-0.1415048
0.8300000,0.8300000,0.8300000,-0.0620049,-0.0039926,-0.7113708,-0.0620049,-0.0576150,-0.1387873
0.8325000,0.8325000,0.8325000,-0.0608420,-0.0039590,-0.7047020,-0.0608420,-0.0566106,-0.1361297
0.8350000,0.8350000,0.8350000,-0.0597046,-0.0039258,-0.6981173,-0.0597046,-0.0556275,-0.1335304
0.8375000,0.8375000,0.8375000,-0.0585921,-0.0038930,-0.6916154,-0.0585921,-0.0546653,-0.1309880
0.8400000,0.8400000,0.8400000,-0.0575039,-0.0038605,-0.6851949,-0.0575039,-0.0537234,-0.1285012
0.8425000,0.8425000,0.8425000,-0.0564392,-0.0038283,-0.6788545,-0.0564392,-0.0528014,-0.1260686
0.8450000,0.8450000,0.8450000,-0.0553977,-0.0037965,-0.6725931,-0.0553977,-0.0518987,-0.1236887
0.8475000,0.8475000,0.8475000,-0.0543786,-0.0037651,-0.6664093,-0.0543786,-0.0510148,-0.1213604
0.8500000,0.8500000,0.8500000,-0.0533815,-0.0037339,-0.6603019,-0.0533815,-0.0501494,-0.1190824
0.8525000,0.8525000,0.8525000,-0.0524058,-0.0037031,-0.6542698,-0.0524058,-0.0493019,-0.1168534
0.8550000,0.8550000,0.8550000,-0.0514509,-0.0036726,-0.6483117,-0.0514509,-0.0484720,-0.1146723
0.8575000,0.8575000,0.8575000,-0.0505164,-0.0036425,-0.6424266,-0.0505164,-0.0476591,-0.1125379
0.8600000,0.8600000,0.8600000,-0.0496017,-0.0036126,-0.6366133,-0.0496017,-0.0468630,-0.1104491
0.8625000,0.8625000,0.8625000,-0.0487065,-0.0035831,-0.6308707,-0.0487065,-0.0460831,-0.1084047
0.8650000,0.8650000,0.8650000,-0.0478301,-0.0035539,-0.6251977,-0.0478301,-0.0453192,-0.1064037
0.8675000,0.8675000,0.8675000,-0.0469722,-0.0035250,-0.6195932,-0.0469722,-0.0445707,-0.1044451
0.8700000,0.8700000,0.8700000,-0.0461324,-0.0034964,-0.6140563,-0.0461324,-0.0438375,-0.1025279
0.8725000,0.8725000,0.8725000,-0.0453100,-0.0034681,-0.6085858,-0.0453100,-0.0431190,-0.1006510
0.8750000,0.8750000,0.8750000,-0.0445049,-0.0034401,-0.6031809,-0.0445049,-0.0424150,-0.0988134
0.8775000,0.8775000,0.8775000,-0.0437165,-0.0034123,-0.5978404,-0.0437165,-0.0417250,-0.0970144
0.8800000,0.8800000,0.8800000,-0.0429444,-0.0033849,-0.5925635,-0.0429444,-0.0410489,-0.0952529
0.8825000,0.8825000,0.8825000,-0.0421883,-0.0033578,-0.5873491,-0.0421883,-0.0403862,-0.0935281
0.8850000,0.8850000,0.8850000,-0.0414478,-0.0033309,-0.5821964,-0.0414478,-0.0397367,-0.0918390
0.8875000,0.8875000,0.8875000,-0.0407225,-0.0033043,-0.5771043,-0.0407225,-0.0391000,-0.0901850
0.8900000,0.8900000,0.8900000,-0.0400120,-0.0032780,-0.5720721,-0.0400120,-0.0384759,-0.0885650
0.8925000,0.8925000,0.8925000,-0.0393161,-0.0032519,-0.5670989,-0.0393161,-0.0378640,-0.0869784
0.8950000,0.8950000,0.8950000,-0.0386343,-0.0032262,-0.5621837,-0.0386343,-0.0372641,-0.0854244
0.8975000,0.8975000,0.8975000,-0.0379664,-0.0032006,-0.5573257,-0.0379664,-0.0366758,-0.0839022
0.9000000,0.9000000,0.9000000,-0.0373120,-0.0031754,-0.5525241,-0.0373120,-0.0360991,-0.0824110
0.9025000,0.9025000,0.9025000,-0.0366707,-0.0031504,-0.5477780,-0.0366707,-0.0355334,-0.0809502
0.9050000,0.9050000,0.9050000,-0.0360424,-0.0031256,-0.5430867,-0.0360424,-0.0349787,-0.0795191
0.9075000,0.9075000,0.9075000,-0.0354267,-0.0031012,-0.5384493,-0.0354267,-0.0344347,-0.0781169
0.9100000,0.9100000,0.9100000,-0.0348233,-0.0030769,-0.5338651,-0.0348233,-0.0339011,-0.0767430
0.9125000,0.9125000,0.9125000,-0.0342319,-0.0030529,-0.5293332,-0.0342319,-0.0333777,-0.0753968
0.9150000,0.9150000,0.9150000,-0.0336523,-0.0030292,-0.5248530,-0.0336523,-0.0328643,-0.0740776
0.9175000,0.9175000,0.9175000,-0.0330842,-0.0030056,-0.5204238,-0.0330842,-0.0323606,-0.0727849
0.9200000,0.9200000,0.9200000,-0.0325273,-0.0029824,-0.5160447,-0.0325273,-0.0318665,-0.0715179
0.9225000,0.9225000,0.9225000,-0.0319814,-0.0029593,-0.5117150,-0.0319814,-0.0313816,-0.0702761
0.9250000,0.9250000,0.9250000,-0.0314462,-0.0029365,-0.5074341,-0.0314462,-0.0309059,-0.0690591
0.9275000,0.9275000,0.9275000,-0.0309214,-0.0029139,-0.5032013,-0.0309214,-0.0304391,-0.0678661
0.9300000,0.9300000,0.9300000,-0.0304070,-0.0028915,-0.4990158,-0.0304070,-0.0299810,-0.0666967
0.9325000,0.9325000,0.9325000,-0.0299025,-0.0028694,-0.4948771,-0.0299025,-0.0295314,-0.0655503
0.9350000,0.9350000,0.9350000,-0.0294079,-0.0028475,-0.4907844,-0.0294079,-0.0290902,-0.0644264
0.9375000,0.9375000,0.9375000,-0.0289228,-0.0028258,-0.4867372,-0.0289228,-0.0286571,-0.0633246
0.9400000,0.9400000,0.9400000,-0.0284471,-0.0028043,-0.4827347,-0.0284471,-0.0282321,-0.0622443
0.9425000,0.9425000,0.9425000,-0.0279805,-0.0027830,-0.4787764,-0.0279805,-0.0278148,-0.0611850
0.9450000,0.9450000,0.9450000,-0.0275229,-0.0027620,-0.4748617,-0.0275229,-0.0274051,-0.0601464
0.9475000,0.9475000,0.9475000,-0.0270741,-0.0027411,-0.4709898,-0.0270741,-0.0270030,-0.0591278
0.9500000,0.9500000,0.9500000,-0.0266338,-0.0027205,-0.4671604,-0.0266338,-0.0266081,-0.0581290
0.9525000,0.9525000,0.9525000,-0.0262019,-0.0027000,-0.4633727,-0.0262019,-0.0262204,-0.0571494
0.9550000,0.9550000,0.9550000,-0.0257782,-0.0026798,-0.4596262,-0.0257782,-0.0258397,-0.0561886
0.9575000,0.9575000,0.9575000,-0.0253625,-0.0026597,-0.4559203,-0.0253625,-0.0254659,-0.0552463
0.9600000,0.9600000,0.9600000,-0.0249547,-0.0026398,-0.4522545,-0.0249547,-0.0250988,-0.0543220
0.9625000,0.9625000,0.9625000,-0.0245545,-0.0026202,-0.4486282,-0.0245545,-0.0247382,-0.0534154
0.9650000,0.9650000,0.9650000,-0.0241619,-0.0026007,-0.4450409,-0.0241619,-0.0243841,-0.0525260
0.9675000,0.9675000,0.9675000,-0.0237765,-0.0025814,-0.4414921,-0.0237765,-0.0240363,-0.0516535
0.9700000,0.9700000,0.9700000,-0.0233984,-0.0025623,-0.4379813,-0.0233984,-0.0236947,-0.0507975
0.9725000,0.9725000,0.9725000,-0.0230274,-0.0025434,-0.4345079,-0.0230274,-0.0233590,-0.0499576
0.9750000,0.9750000,0.9750000,-0.0226632,-0.0025247,-0.4310714,-0.0226632,-0.0230293,-0.0491336
0.9775000,0.9775000,0.9775000,-0.0223057,-0.0025061,-0.4276714,-0.0223057,-0.0227054,-0.0483251
0.9800000,0.9800000,0.9800000,-0.0219549,-0.0024877,-0.4243073,-0.0219549,-0.0223872,-0.0475317
0.9825000,0.9825000,0.9825000,-0.0216105,-0.0024695,-0.4209787,-0.0216105,-0.0220745,-0.0467531
0.9850000,0.9850000,0.9850000,-0.0212724,-0.0024515,-0.4176851,-0.0212724,-0.0217673,-0.0459891
0.9875000,0.9875000,0.9875000,-0.0209405,-0.0024337,-0.4144261,-0.0209405,-0.0214654,-0.0452393
0.9900000,0.9900000,0.9900000,-0.0206147,-0.0024160,-0.4112011,-0.0206147,-0.0211687,-0.0445033
0.9925000,0.9925000,0.9925000,-0.0202948,-0.0023985,-0.4080098,-0.0202948,-0.0208771,-0.0437810
0.9950000,0.9950000,0.9950000,-0.0199807,-0.0023811,-0.4048517,-0.0199807,-0.0205905,-0.0430721
0.9975000,0.9975000,0.9975000,-0.0196723,-0.0023639,-0.4017264,-0.0196723,-0.0203088,-0.0423761
1.0000000,1.0000000,1.0000000,-0.0193695,-0.0023469,-0.3986334,-0.0193695,-0.0200320,-0.0416930
1.0025000,1.0025000,1.0025000,-0.0190721,-0.0023300,-0.3955723,-0.0190721,-0.0197598,-0.0410224
1.0050000,1.0050000,1.0050000,-0.0187801,-0.0023133,-0.3925427,-0.0187801,-0.0194923,-0.0403640
1.0075000,1.0075000,1.0075000,-0.0184933,-0.0022968,-0.3895442,-0.0184933,-0.0192293,-0.0397176
1.0100000,1.0100000,1.0100000,-0.0182116,-0.0022804,-0.3865764,-0.0182116,-0.0189707,-0.0390830
1.0125000,1.0125000,1.0125000,-0.0179349,-0.0022642,-0.3836389,-0.0179349,-0.0187165,-0.0384599
1.0150000,1.0150000,1.0150000,-0.0176632,-0.0022481,-0.3807314,-0.0176632,-0.0184665,-0.0378481
1.0175000,1.0175000,1.0175000,-0.0173963,-0.0022321,-0.3778533,-0.0173963,-0.0182208,-0.0372473
1.0200000,1.0200000,1.0200000,-0.0171341,-0.0022163,-0.3750044,-0.0171341,-0.0179791,-0.0366573
1.0225000,1.0225000,1.0225000,-0.0168765,-0.0022007,-0.3721843,-0.0168765,-0.0177414,-0.0360779
1.0250000,1.0250000,1.0250000,-0.0166234,-0.0021852,-0.3693926,-0.0166234,-0.0175076,-0.0355089
1.0275000,1.0275000,1.0275000,-0.0163748,-0.0021698,-0.3666290,-0.0163748,-0.0172778,-0.0349501
1.0300000,1.0300000,1.0300000,-0.0161306,-0.0021546,-0.3638931,-0.0161306,-0.0170517,-0.0344013
1.0325000,1.0325000,1.0325000,-0.0158906,-0.0021395,-0.3611845,-0.0158906,-0.0168293,-0.0338622
1.0350000,1.0350000,1.0350000,-0.0156547,-0.0021246,-0.3585029,-0.0156547,-0.0166105,-0.0333326
1.0375000,1.0375000,1.0375000,-0.0154230,-0.0021098,-0.3558480,-0.0154230,-0.0163953,-0.0328125
1.0400000,1.0400000,1.0400000,-0.0151953,-0.0020951,-0.3532195,-0.0151953,-0.0161837,-0.0323015
1.0425000,1.0425000,1.0425000,-0.0149715,-0.0020806,-0.3506169,-0.0149715,-0.0159754,-0.0317996
1.0450000,1.0450000,1.0450000,-0.0147516,-0.0020662,-0.3480401,-0.0147516,-0.0157705,-0.0313064
1.0475000,1.0475000,1.0475000,-0.0145354,-0.0020519,-0.3454886,-0.0145354,-0.0155689,-0.0308220
1.0500000,1.0500000,1.0500000,-0.0143230,-0.0020378,-0.3429621,-0.0143230,-0.0153706,-0.0303459
1.0525000,1.0525000,1.0525000,-0.0141142,-0.0020238,-0.3404605,-0.0141142,-0.0151754,-0.0298782
1.0550000,1.0550000,1.0550000,-0.0139089,-0.0020099,-0.3379832,-0.0139089,-0.0149834,-0.0294187
1.0575000,1.0575000,1.0575000,-0.0137071,-0.0019961,-0.3355301,-0.0137071,-0.0147944,-0.0289671
1.0600000,1.0600000,1.0600000,-0.0135088,-0.0019825,-0.3331008,-0.0135088,-0.0146084,-0.0285234
1.0625000,1.0625000,1.0625000,-0.0133138,-0.0019689,-0.3306951,-0.0133138,-0.0144253,-0.0280873
1.0650000,1.0650000,1.0650000,-0.0131221,-0.0019555,-0.3283127,-0.0131221,-0.0142452,-0.0276588
1.0675000,1.0675000,1.0675000,-0.0129336,-0.0019423,-0.3259532,-0.0129336,-0.0140678,-0.0272376
1.0700000,1.0700000,1.0700000,-0.0127483,-0.0019291,-0.3236165,-0.0127483,-0.0138933,-0.0268237
1.0725000,1.0725000,1.0725000,-0.0125662,-0.0019161,-0.3213022,-0.0125662,-0.0137215,-0.0264168
1.0750000,1.0750000,1.0750000,-0.0123870,-0.0019031,-0.3190100,-0.0123870,-0.0135523,-0.0260169
1.0775000,1.0775000,1.0775000,-0.0122108,-0.0018903,-0.3167398,-0.0122108,-0.0133858,-0.0256239
1.0800000,1.0800000,1.0800000,-0.0120376,-0.0018776,-0.3144911,-0.0120376,-0.0132219,-0.0252375
1.0825000,1.0825000,1.0825000,-0.0118672,-0.0018651,-0.3122639,-0.0118672,-0.0130605,-0.0248577
1.0850000,1.0850000,1.0850000,-0.0116997,-0.0018526,-0.3100577,-0.0116997,-0.0129016,-0.0244843
1.0875000,1.0875000,1.0875000,-0.0115349,-0.0018402,-0.3078725,-0.0115349,-0.0127452,-0.0241172
1.0900000,1.0900000,1.0900000,-0.0113729,-0.0018280,-0.3057078,-0.0113729,-0.0125911,-0.0237564
1.0925000,1.0925000,1.0925000,-0.0112135,-0.0018158,-0.3035636,-0.0112135,-0.0124394,-0.0234016
1.0950000,1.0950000,1.0950000,-0.0110567,-0.0018038,-0.3014394,-0.0110567,-0.0122900,-0.0230527
1.0975000,1.0975000,1.0975000,-0.0109025,-0.0017918,-0.2993352,-0.0109025,-0.0121429,-0.0227097
1.1000000,1.1000000,1.1000000,-0.0107508,-0.0017800,-0.2972506,-0.0107508,-0.0119980,-0.0223725
1.1025000,1.1025000,1.1025000,-0.0106015,-0.0017683,-0.2951855,-0.0106015,-0.0118553,-0.0220408
1.1050000,1.1050000,1.1050000,-0.0104547,-0.0017566,-0.2931396,-0.0104547,-0.0117148,-0.0217147
1.1075000,1.1075000,1.1075000,-0.0103103,-0.0017451,-0.2911126,-0.0103103,-0.0115763,-0.0213940
1.1100000,1.1100000,1.1100000,-0.0101681,-0.0017337,-0.2891044,-0.0101681,-0.0114400,-0.0210786
1.1125000,1.1125000,1.1125000,-0.0100283,-0.0017223,-0.2871148,-0.0100283,-0.0113057,-0.0207685
1.1150000,1.1150000,1.1150000,-0.0098908,-0.0017111,-0.2851435,-0.0098908,-0.0111733,-0.0204634
1.1175000,1.1175000,1.1175000,-0.0097554,-0.0017000,-0.2831902,-0.0097554,-0.0110430,-0.0201634
1.1200000,1.1200000,1.1200000,-0.0096222,-0.0016889,-0.2812549,-0.0096222,-0.0109145,-0.0198683
1.1225000,1.1225000,1.1225000,-0.0094911,-0.0016780,-0.2793374,-0.0094911,-0.0107880,-0.0195780
1.1250000,1.1250000,1.1250000,-0.0093621,-0.0016671,-0.2774373,-0.0093621,-0.0106633,-0.0192925
1.1275000,1.1275000,1.1275000,-0.0092352,-0.0016564,-0.2755544,-0.0092352,-0.0105405,-0.0190117
1.1300000,1.1300000,1.1300000,-0.0091103,-0.0016457,-0.2736887,-0.0091103,-0.0104195,-0.0187354
1.1325000,1.1325000,1.1325000,-0.0089873,-0.0016351,-0.2718399,-0.0089873,-0.0103002,-0.0184636
1.1350000,1.1350000,1.1350000,-0.0088663,-0.0016246,-0.2700079,-0.0088663,-0.0101827,-0.0181962
1.1375000,1.1375000,1.1375000,-0.0087472,-0.0016142,-0.2681923,-0.0087472,-0.0100668,-0.0179332
1.1400000,1.1400000,1.1400000,-0.0086300,-0.0016039,-0.2663931,-0.0086300,-0.0099527,-0.0176744
1.1425000,1.1425000,1.1425000,-0.0085146,-0.0015937,-0.2646100,-0.0085146,-0.0098402,-0.0174198
1.1450000,1.1450000,1.1450000,-0.0084010,-0.0015835,-0.2628429,-0.0084010,-0.0097293,-0.0171692
1.1475000,1.1475000,1.1475000,-0.0082892,-0.0015735,-0.2610916,-0.0082892,-0.0096200,-0.0169227
1.1500000,1.1500000,1.1500000,-0.0081791,-0.0015635,-0.2593559,-0.0081791,-0.0095123,-0.0166802
1.1525000,1.1525000,1.1525000,-0.0080707,-0.0015536,-0.2576356,-0.0080707,-0.0094061,-0.0164415
1.1550000,1.1550000,1.1550000,-0.0079640,-0.0015438,-0.2559306,-0.0079640,-0.0093015,-0.0162066
1.1575000,1.1575000,1.1575000,-0.0078590,-0.0015341,-0.2542407,-0.0078590,-0.0091983,-0.0159755
1.1600000,1.1600000,1.1600000,-0.0077555,-0.0015244,-0.2525657,-0.0077555,-0.0090965,-0.0157480
1.1625000,1.1625000,1.1625000,-0.0076537,-0.0015149,-0.2509055,-0.0076537,-0.0089963,-0.0155242
1.1650000,1.1650000,1.1650000,-0.0075534,-0.0015054,-0.2492599,-0.0075534,-0.0088974,-0.0153039
1.1675000,1.1675000,1.1675000,-0.0074547,-0.0014960,-0.2476287,-0.0074547,-0.0087999,-0.0150870
1.1700000,1.1700000,1.1700000,-0.0073575,-0.0014866,-0.2460119,-0.0073575,-0.0087038,-0.0148736
1.1725000,1.1725000,1.1725000,-0.0072617,-0.0014774,-0.2444091,-0.0072617,-0.0086090,-0.0146636
1.1750000,1.1750000,1.1750000,-0.0071674,-0.0014682,-0.2428203,-0.0071674,-0.0085156,-0.0144568
1.1775000,1.1775000,1.1775000,-0.0070746,-0.0014591,-0.2412453,-0.0070746,-0.0084234,-0.0142533
1.1800000,1.1800000,1.1800000,-0.0069831,-0.0014501,-0.2396840,-0.0069831,-0.0083325,-0.0140530
1.1825000,1.1825000,1.1825000,-0.0068930,-0.0014411,-0.2381362,-0.0068930,-0.0082429,-0.0138558
1.1850000,1.1850000,1.1850000,-0.0068043,-0.0014323,-0.2366018,-0.0068043,-0.0081545,-0.0136616
1.1875000,1.1875000,1.1875000,-0.0067169,-0.0014234,-0.2350806,-0.0067169,-0.0080673,-0.0134705
1.1900000,1.1900000,1.1900000,-0.0066309,-0.0014147,-0.2335724,-0.0066309,-0.0079814,-0.0132823
1.1925000,1.1925000,1.1925000,-0.0065461,-0.0014060,-0.2320772,-0.0065461,-0.0078966,-0.0130971
1.1950000,1.1950000,1.1950000,-0.0064626,-0.0013974,-0.2305949,-0.0064626,-0.0078129,-0.0129147
1.1975000,1.1975000,1.1975000,-0.0063803,-0.0013889,-0.2291251,-0.0063803,-0.0077304,-0.0127351
1.2000000,1.2000000,1.2000000,-0.0062993,-0.0013805,-0.2276680,-0.0062993,-0.0076490,-0.0125583
1.2025000,1.2025000,1.2025000,-0.0062194,-0.0013721,-0.2262232,-0.0062194,-0.0075687,-0.0123842
1.2050000,1.2050000,1.2050000,-0.0061408,-0.0013637,-0.2247906,-0.0061408,-0.0074895,-0.0122128
1.2075000,1.2075000,1.2075000,-0.0060633,-0.0013555,-0.2233702,-0.0060633,-0.0074114,-0.0120440
1.2100000,1.2100000,1.2100000,-0.0059869,-0.0013473,-0.2219618,-0.0059869,-0.0073343,-0.0118778
1.2125000,1.2125000,1.2125000,-0.0059117,-0.0013392,-0.2205653,-0.0059117,-0.0072582,-0.0117141
1.2150000,1.2150000,1.2150000,-0.0058376,-0.0013311,-0.2191805,-0.0058376,-0.0071832,-0.0115529
1.2175000,1.2175000,1.2175000,-0.0057645,-0.0013231,-0.2178074,-0.0057645,-0.0071092,-0.0113942
1.2200000,1.2200000,1.2200000,-0.0056925,-0.0013152,-0.2164457,-0.0056925,-0.0070361,-0.0112378
1.2225000,1.2225000,1.2225000,-0.0056216,-0.0013073,-0.2150955,-0.0056216,-0.0069640,-0.0110838
1.2250000,1.2250000,1.2250000,-0.0055517,-0.0012995,-0.2137565,-0.0055517,-0.0068929,-0.0109322
1.2275000,1.2275000,1.2275000,-0.0054829,-0.0012917,-0.2124286,-0.0054829,-0.0068226,-0.0107828
1.2300000,1.2300000,1.2300000,-0.0054150,-0.0012841,-0.2111118,-0.0054150,-0.0067534,-0.0106357
1.2325000,1.2325000,1.2325000,-0.0053481,-0.0012764,-0.2098059,-0.0053481,-0.0066850,-0.0104908
1.2350000,1.2350000,1.2350000,-0.0052822,-0.0012689,-0.2085108,-0.0052822,-0.0066175,-0.0103481
1.2375000,1.2375000,1.2375000,-0.0052172,-0.0012614,-0.2072264,-0.0052172,-0.0065509,-0.0102075
1.2400000,1.2400000,1.2400000,-0.0051531,-0.0012539,-0.2059525,-0.0051531,-0.0064852,-0.0100690
1.2425000,1.2425000,1.2425000,-0.0050900,-0.0012465,-0.2046892,-0.0050900,-0.0064203,-0.0099325
1.2450000,1.2450000,1.2450000,-0.0050278,-0.0012392,-0.2034362,-0.0050278,-0.0063562,-0.0097981
1.2475000,1.2475000,1.2475000,-0.0049664,-0.0012319,-0.2021934,-0.0049664,-0.0062930,-0.0096657
1.2500000,1.2500000,1.2500000,-0.0049060,-0.0012247,-0.2009608,-0.0049060,-0.0062306,-0.0095353
1.2525000,1.2525000,1.2525000,-0.0048464,-0.0012175,-0.1997383,-0.0048464,-0.0061690,-0.0094067
1.2550000,1.2550000,1.2550000,-0.0047876,-0.0012104,-0.1985257,-0.0047876,-0.0061082,-0.0092801
1.2575000,1.2575000,1.2575000,-0.0047297,-0.0012034,-0.1973229,-0.0047297,-0.0060481,-0.0091554
1.2600000,1.2600000,1.2600000,-0.0046726,-0.0011964,-0.1961299,-0.0046726,-0.0059889,-0.0090325
1.2625000,1.2625000,1.2625000,-0.0046163,-0.0011894,-0.1949465,-0.0046163,-0.0059303,-0.0089113
1.2650000,1.2650000,1.2650000,-0.0045608,-0.0011825,-0.1937726,-0.0045608,-0.0058726,-0.0087920
1.2675000,1.2675000,1.2675000,-0.0045061,-0.0011757,-0.1926082,-0.0045061,-0.0058155,-0.0086744
1.2700000,1.2700000,1.2700000,-0.0044521,-0.0011689,-0.1914532,-0.0044521,-0.0057592,-0.0085586
1.2725000,1.2725000,1.2725000,-0.0043989,-0.0011622,-0.1903074,-0.0043989,-0.0057035,-0.0084444
1.2750000,1.2750000,1.2750000,-0.0043464,-0.0011555,-0.1891708,-0.0043464,-0.0056486,-0.0083319
1.2775000,1.2775000,1.2775000,-0.0042947,-0.0011489,-0.1880433,-0.0042947,-0.0055944,-0.0082210
1.2800000,1.2800000,1.2800000,-0.0042437,-0.0011423,-0.1869247,-0.0042437,-0.0055408,-0.0081117
1.2825000,1.2825000,1.2825000,-0.0041934,-0.0011357,-0.1858151,-0.0041934,-0.0054879,-0.0080040
1.2850000,1.2850000,1.2850000,-0.0041438,-0.0011293,-0.1847142,-0.0041438,-0.0054357,-0.0078979
1.2875000,1.2875000,1.2875000,-0.0040948,-0.0011228,-0.1836221,-0.0040948,-0.0053841,-0.0077933
1.2900000,1.2900000,1.2900000,-0.0040466,-0.0011164,-0.1825386,-0.0040466,-0.0053331,-0.0076902
1.2925000,1.2925000,1.2925000,-0.0039990,-0.0011101,-0.1814636,-0.0039990,-0.0052828,-0.0075886
1.2950000,1.2950000,1.2950000,-0.0039521,-0.0011038,-0.1803971,-0.0039521,-0.0052331,-0.0074884
1.2975000,1.2975000,1.2975000,-0.0039058,-0.0010976,-0.1793390,-0.0039058,-0.0051839,-0.0073897
1.3000000,1.3000000,1.3000000,-0.0038601,-0.0010914,-0.1782891,-0.0038601,-0.0051354,-0.0072924
1.3025000,1.3025000,1.3025000,-0.0038151,-0.0010852,-0.1772475,-0.0038151,-0.0050875,-0.0071965
1.3050000,1.3050000,1.3050000,-0.0037707,-0.0010791,-0.1762141,-0.0037707,-0.0050402,-0.0071020
1.3075000,1.3075000,1.3075000,-0.0037269,-0.0010731,-0.1751886,-0.0037269,-0.0049934,-0.0070088
1.3100000,1.3100000,1.3100000,-0.0036837,-0.0010671,-0.1741712,-0.0036837,-0.0049472,-0.0069169
1.3125000,1.3125000,1.3125000,-0.0036410,-0.0010611,-0.1731616,-0.0036410,-0.0049016,-0.0068263
1.3150000,1.3150000,1.3150000,-0.0035990,-0.0010552,-0.1721599,-0.0035990,-0.0048565,-0.0067370
1.3175000,1.3175000,1.3175000,-0.0035575,-0.0010493,-0.1711659,-0.0035575,-0.0048120,-0.0066490
1.3200000,1.3200000,1.3200000,-0.0035165,-0.0010434,-0.1701796,-0.0035165,-0.0047680,-0.0065622
1.3225000,1.3225000,1.3225000,-0.0034762,-0.0010376,-0.1692008,-0.0034762,-0.0047245,-0.0064767
1.3250000,1.3250000,1.3250000,-0.0034363,-0.0010319,-0.1682296,-0.0034363,-0.0046815,-0.0063923
1.3275000,1.3275000,1.3275000,-0.0033970,-0.0010262,-0.1672659,-0.0033970,-0.0046391,-0.0063092
1.3300000,1.3300000,1.3300000,-0.0033582,-0.0010205,-0.1663095,-0.0033582,-0.0045971,-0.0062272
1.3325000,1.3325000,1.3325000,-0.0033200,-0.0010149,-0.1653604,-0.0033200,-0.0045556,-0.0061463
1.3350000,1.3350000,1.3350000,-0.0032822,-0.0010093,-0.1644186,-0.0032822,-0.0045147,-0.0060666
1.3375000,1.3375000,1.3375000,-0.0032450,-0.0010038,-0.1634839,-0.0032450,-0.0044742,-0.0059880
1.3400000,1.3400000,1.3400000,-0.0032082,-0.0009982,-0.1625564,-0.0032082,-0.0044342,-0.0059105
1.3425000,1.3425000,1.3425000,-0.0031719,-0.0009928,-0.1616359,-0.0031719,-0.0043946,-0.0058340
1.3450000,1.3450000,1.3450000,-0.0031361,-0.0009874,-0.1607223,-0.0031361,-0.0043556,-0.0057587
1.3475000,1.3475000,1.3475000,-0.0031008,-0.0009820,-0.1598156,-0.0031008,-0.0043169,-0.0056844
1.3500000,1.3500000,1.3500000,-0.0030660,-0.0009766,-0.1589158,-0.0030660,-0.0042788,-0.0056111
1.3525000,1.3525000,1.3525000,-0.0030316,-0.0009713,-0.1580227,-0.0030316,-0.0042410,-0.0055388
1.3550000,1.3550000,1.3550000,-0.0029976,-0.0009660,-0.1571364,-0.0029976,-0.0042037,-0.0054675
1.3575000,1.3575000,1.3575000,-0.0029641,-0.0009608,-0.1562567,-0.0029641,-0.0041669,-0.0053972
1.3600000,1.3600000,1.3600000,-0.0029310,-0.0009556,-0.1553835,-0.0029310,-0.0041304,-0.0053279
1.3625000,1.3625000,1.3625000,-0.0028984,-0.0009505,-0.1545169,-0.0028984,-0.0040944,-0.0052595
1.3650000,1.3650000,1.3650000,-0.0028662,-0.0009453,-0.1536568,-0.0028662,-0.0040588,-0.0051920
1.3675000,1.3675000,1.3675000,-0.0028344,-0.0009402,-0.1528030,-0.0028344,-0.0040236,-0.0051255
1.3700000,1.3700000,1.3700000,-0.0028030,-0.0009352,-0.1519556,-0.0028030,-0.0039888,-0.0050599
1.3725000,1.3725000,1.3725000,-0.0027720,-0.0009302,-0.1511144,-0.0027720,-0.0039544,-0.0049952
1.3750000,1.3750000,1.3750000,-0.0027414,-0.0009252,-0.1502795,-0.0027414,-0.0039204,-0.0049314
1.3775000,1.3775000,1.3775000,-0.0027113,-0.0009203,-0.1494507,-0.0027113,-0.0038867,-0.0048684
1.3800000,1.3800000,1.3800000,-0.0026815,-0.0009154,-0.1486281,-0.0026815,-0.0038535,-0.0048063
1.3825000,1.3825000,1.3825000,-0.0026520,-0.0009105,-0.1478115,-0.0026520,-0.0038206,-0.0047450
1.3850000,1.3850000,1.3850000,-0.0026230,-0.0009057,-0.1470009,-0.0026230,-0.0037881,-0.0046846
1.3875000,1.3875000,1.3875000,-0.0025943,-0.0009008,-0.1461962,-0.0025943,-0.0037559,-0.0046250
1.3900000,1.3900000,1.3900000,-0.0025660,-0.0008961,-0.1453974,-0.0025660,-0.0037242,-0.0045662
1.3925000,1.3925000,1.3925000,-0.0025381,-0.0008913,-0.1446045,-0.0025381,-0.0036927,-0.0045081
1.3950000,1.3950000,1.3950000,-0.0025105,-0.0008866,-0.1438173,-0.0025105,-0.0036616,-0.0044509
1.3975000,1.3975000,1.3975000,-0.0024833,-0.0008820,-0.1430358,-0.0024833,-0.0036309,-0.0043944
1.4000000,1.4000000,1.4000000,-0.0024564,-0.0008773,-0.1422601,-0.0024564,-0.0036005,-0.0043387
1.4025000,1.4025000,1.4025000,-0.0024298,-0.0008727,-0.1414899,-0.0024298,-0.0035704,-0.0042838
1.4050000,1.4050000,1.4050000,-0.0024036,-0.0008681,-0.1407253,-0.0024036,-0.0035407,-0.0042295
1.4075000,1.4075000,1.4075000,-0.0023777,-0.0008636,-0.1399662,-0.0023777,-0.0035113,-0.0041760
1.4100000,1.4100000,1.4100000,-0.0023522,-0.0008591,-0.1392126,-0.0023522,-0.0034822,-0.0041233
1.4125000,1.4125000,1.4125000,-0.0023269,-0.0008546,-0.1384644,-0.0023269,-0.0034535,-0.0040712
1.4150000,1.4150000,1.4150000,-0.0023020,-0.0008502,-0.1377216,-0.0023020,-0.0034250,-0.0040198
1.4175000,1.4175000,1.4175000,-0.0022774,-0.0008458,-0.1369841,-0.0022774,-0.0033969,-0.0039691
1.4200000,1.4200000,1.4200000,-0.0022531,-0.0008414,-0.1362519,-0.0022531,-0.0033691,-0.0039191
1.4225000,1.4225000,1.4225000,-0.0022291,-0.0008370,-0.1355249,-0.0022291,-0.0033415,-0.0038697
1.4250000,1.4250000,1.4250000,-0.0022054,-0.0008327,-0.1348031,-0.0022054,-0.0033143,-0.0038210
1.4275000,1.4275000,1.4275000,-0.0021820,-0.0008284,-0.1340865,-0.0021820,-0.0032874,-0.0037729
1.4300000,1.4300000,1.4300000,-0.0021589,-0.0008241,-0.1333749,-0.0021589,-0.0032607,-0.0037255
1.4325000,1.4325000,1.4325000,-0.0021361,-0.0008199,-0.1326684,-0.0021361,-0.0032343,-0.0036787
1.4350000,1.4350000,1.4350000,-0.0021135,-0.0008157,-0.1319668,-0.0021135,-0.0032083,-0.0036325
1.4375000,1.4375000,1.4375000,-0.0020912,-0.0008115,-0.1312702,-0.0020912,-0.0031825,-0.0035869
1.4400000,1.4400000,1.4400000,-0.0020692,-0.0008073,-0.1305786,-0.0020692,-0.0031569,-0.0035419
1.4425000,1.4425000,1.4425000,-0.0020475,-0.0008032,-0.1298918,-0.0020475,-0.0031317,-0.0034975
1.4450000,1.4450000,1.4450000,-0.0020260,-0.0007991,-0.1292098,-0.0020260,-0.0031067,-0.0034537
1.4475000,1.4475000,1.4475000,-0.0020048,-0.0007950,-0.1285326,-0.0020048,-0.0030820,-0.0034104
1.4500000,1.4500000,1.4500000,-0.0019839,-0.0007910,-0.1278601,-0.0019839,-0.0030575,-0.0033677
1.4525000,1.4525000,1.4525000,-0.0019632,-0.0007870,-0.1271924,-0.0019632,-0.0030333,-0.0033256
1.4550000,1.4550000,1.4550000,-0.0019428,-0.0007830,-0.1265293,-0.0019428,-0.0030093,-0.0032840
1.4575000,1.4575000,1.4575000,-0.0019226,-0.0007790,-0.1258708,-0.0019226,-0.0029856,-0.0032430
1.4600000,1.4600000,1.4600000,-0.0019027,-0.0007751,-0.1252169,-0.0019027,-0.0029622,-0.0032025
1.4625000,1.4625000,1.4625000,-0.0018830,-0.0007712,-0.1245675,-0.0018830,-0.0029390,-0.0031625
1.4650000,1.4650000,1.4650000,-0.0018635,-0.0007673,-0.1239226,-0.0018635,-0.0029160,-0.0031231
1.4675000,1.4675000,1.4675000,-0.0018443,-0.0007634,-0.1232822,-0.0018443,-0.0028933,-0.0030841
1.4700000,1.4700000,1.4700000,-0.0018253,-0.0007596,-0.1226462,-0.0018253,-0.0028708,-0.0030457
1.4725000,1.4725000,1.4725000,-0.0018065,-0.0007558,-0.1220146,-0.0018065,-0.0028485,-0.0030077
1.4750000,1.4750000,1.4750000,-0.0017880,-0.0007520,-0.1213874,-0.0017880,-0.0028265,-0.0029703
1.4775000,1.4775000,1.4775000,-0.0017697,-0.0007483,-0.1207644,-0.0017697,-0.0028047,-0.0029333
1.4800000,1.4800000,1.4800000,-0.0017516,-0.0007445,-0.1201457,-0.0017516,-0.0027831,-0.0028968
1.4825000,1.4825000,1.4825000,-0.0017337,-0.0007408,-0.1195312,-0.0017337,-0.0027618,-0.0028607
1.4850000,1.4850000,1.4850000,-0.0017160,-0.0007372,-0.1189210,-0.0017160,-0.0027406,-0.0028252
1.4875000,1.4875000,1.4875000,-0.0016985,-0.0007335,-0.1183149,-0.0016985,-0.0027197,-0.0027900
1.4900000,1.4900000,1.4900000,-0.0016813,-0.0007299,-0.1177129,-0.0016813,-0.0026990,-0.0027554
1.4925000,1.4925000,1.4925000,-0.0016642,-0.0007263,-0.1171150,-0.0016642,-0.0026785,-0.0027211
1.4950000,1.4950000,1.4950000,-0.0016474,-0.0007227,-0.1165212,-0.0016474,-0.0026582,-0.0026873
1.4975000,1.4975000,1.4975000,-0.0016308,-0.0007191,-0.1159314,-0.0016308,-0.0026381,-0.0026540
1.5000000,1.5000000,1.5000000,-0.0016143,-0.0007156,-0.1153455,-0.0016143,-0.0026182,-0.0026210
1.5025000,1.5025000,1.5025000,-0.0015980,-0.0007121,-0.1147637,-0.0015980,-0.0025985,-0.0025885
1.5050000,1.5050000,1.5050000,-0.0015820,-0.0007086,-0.1141857,-0.0015820,-0.0025791,-0.0025564
1.5075000,1.5075000,1.5075000,-0.0015661,-0.0007051,-0.1136117,-0.0015661,-0.0025598,-0.0025247
1.5100000,1.5100000,1.5100000,-0.0015504,-0.0007017,-0.1130414,-0.0015504,-0.0025407,-0.0024934
1.5125000,1.5125000,1.5125000,-0.0015349,-0.0006982,-0.1124751,-0.0015349,-0.0025218,-0.0024625
1.5150000,1.5150000,1.5150000,-0.0015196,-0.0006948,-0.1119125,-0.0015196,-0.0025030,-0.0024320
1.5175000,1.5175000,1.5175000,-0.0015044,-0.0006914,-0.1113536,-0.0015044,-0.0024845,-0.0024019
1.5200000,1.5200000,1.5200000,-0.0014895,-0.0006881,-0.1107985,-0.0014895,-0.0024661,-0.0023721
1.5225000,1.5225000,1.5225000,-0.0014747,-0.0006848,-0.1102471,-0.0014747,-0.0024480,-0.0023427
1.5250000,1.5250000,1.5250000,-0.0014600,-0.0006814,-0.1096993,-0.0014600,-0.0024300,-0.0023137
1.5275000,1.5275000,1.5275000,-0.0014456,-0.0006781,-0.1091552,-0.0014456,-0.0024122,-0.0022851
1.5300000,1.5300000,1.5300000,-0.0014313,-0.0006749,-0.1086147,-0.0014313,-0.0023945,-0.0022568
1.5325000,1.5325000,1.5325000,-0.0014172,-0.0006716,-0.1080777,-0.0014172,-0.0023771,-0.0022289
1.5350000,1.5350000,1.5350000,-0.0014032,-0.0006684,-0.1075443,-0.0014032,-0.0023598,-0.0022013
1.5375000,1.5375000,1.5375000,-0.0013894,-0.0006652,-0.1070144,-0.0013894,-0.0023426,-0.0021740
1.5400000,1.5400000,1.5400000,-0.0013758,-0.0006620,-0.1064880,-0.0013758,-0.0023257,-0.0021471
1.5425000,1.5425000,1.5425000,-0.0013623,-0.0006588,-0.1059651,-0.0013623,-0.0023089,-0.0021206
1.5450000,1.5450000,1.5450000,-0.0013489,-0.0006557,-0.1054456,-0.0013489,-0.0022922,-0.0020943
1.5475000,1.5475000,1.5475000,-0.0013358,-0.0006525,-0.1049295,-0.0013358,-0.0022758,-0.0020684
1.5500000,1.5500000,1.5500000,-0.0013227,-0.0006494,-0.1044167,-0.0013227,-0.0022595,-0.0020428
1.5525000,1.5525000,1.5525000,-0.0013098,-0.0006463,-0.1039073,-0.0013098,-0.0022433,-0.0020176
1.5550000,1.5550000,1.5550000,-0.0012971,-0.0006433,-0.1034012,-0.0012971,-0.0022273,-0.0019926
1.5575000,1.5575000,1.5575000,-0.0012845,-0.0006402,-0.1028985,-0.0012845,-0.0022114,-0.0019680
1.5600000,1.5600000,1.5600000,-0.0012721,-0.0006372,-0.1023989,-0.0012721,-0.0021957,-0.0019436
1.5625000,1.5625000,1.5625000,-0.0012598,-0.0006342,-0.1019026,-0.0012598,-0.0021802,-0.0019196
1.5650000,1.5650000,1.5650000,-0.0012476,-0.0006312,-0.1014096,-0.0012476,-0.0021648,-0.0018958
1.5675000,1.5675000,1.5675000,-0.0012356,-0.0006282,-0.1009197,-0.0012356,-0.0021495,-0.0018724
1.5700000,1.5700000,1.5700000,-0.0012237,-0.0006252,-0.1004330,-0.0012237,-0.0021344,-0.0018492
1.5725000,1.5725000,1.5725000,-0.0012119,-0.0006223,-0.0999494,-0.0012119,-0.0021195,-0.0018263
1.5750000,1.5750000,1.5750000,-0.0012003,-0.0006194,-0.0994689,-0.0012003,-0.0021046,-0.0018037
1.5775000,1.5775000,1.5775000,-0.0011888,-0.0006165,-0.0989915,-0.0011888,-0.0020899,-0.0017814
1.5800000,1.5800000,1.5800000,-0.0011774,-0.0006136,-0.0985171,-0.0011774,-0.0020754,-0.0017594
1.5825000,1.5825000,1.5825000,-0.0011662,-0.0006107,-0.0980458,-0.0011662,-0.0020610,-0.0017376
1.5850000,1.5850000,1.5850000,-0.0011550,-0.0006079,-0.0975775,-0.0011550,-0.0020467,-0.0017161
1.5875000,1.5875000,1.5875000,-0.0011440,-0.0006050,-0.0971122,-0.0011440,-0.0020326,-0.0016948
1.5900000,1.5900000,1.5900000,-0.0011332,-0.0006022,-0.0966498,-0.0011332,-0.0020185,-0.0016738
1.5925000,1.5925000,1.5925000,-0.0011224,-0.0005994,-0.0961904,-0.0011224,-0.0020047,-0.0016531
1.5950000,1.5950000,1.5950000,-0.0011118,-0.0005967,-0.0957339,-0.0011118,-0.0019909,-0.0016326
1.5975000,1.5975000,1.5975000,-0.0011013,-0.0005939,-0.0952803,-0.0011013,-0.0019773,-0.0016124
