# r[nm],d[nm],daligned[nm],U(d)[kj/mol],V(d)[e/nm],Uslab(d)[kJ/mol],UC(d)[kJ/mol],UK(d)[kJ/mol],UCl(d)[kJ/mol]
0.1725000,0.1725000,0.1725000,1793.4294343,-0.3788137,456.8695783,1793.4294343,1130.1409504,inf
0.1750000,0.1750000,0.1750000,1583.2238527,-0.3722537,395.8543378,1583.2238527,996.5667545,inf
0.1775000,0.1775000,0.1775000,1398.7009980,-0.3657988,343.2144542,1398.7009980,879.3813469,inf
0.1800000,0.1800000,0.1800000,1236.5821777,-0.3594487,297.7253366,1236.5821777,776.4884252,inf
0.1825000,0.1825000,0.1825000,1094.0254183,-0.3532030,258.3539505,1094.0254183,686.0711833,inf
0.1850000,0.1850000,0.1850000,968.5650061,-0.3470611,224.2268578,968.5650061,606.5535985,inf
0.1875000,0.1875000,0.1875000,858.0596834,-0.3410225,194.6039188,858.0596834,536.5672630,inf
0.1900000,0.1900000,0.1900000,760.6482278,-0.3350864,168.8565963,760.6482278,474.9229422,inf
0.1925000,0.1925000,0.1925000,674.7113297,-0.3292521,146.4500101,674.7113297,420.5861687,inf
0.1950000,0.1950000,0.1950000,598.8388487,-0.3235186,126.9280561,598.8388487,372.6562799,inf
0.1975000,0.1975000,0.1975000,531.8016665,-0.3178851,109.9010369,531.8016665,330.3483993,inf
0.2000000,0.2000000,0.2000000,472.5274697,-0.3123504,95.0353555,472.5274697,292.9779327,inf
0.2025000,0.2025000,0.2025000,420.0798965,-0.3069136,82.0449082,420.0798965,259.9472123,1794.2998135
0.2050000,0.2050000,0.2050000,373.6405633,-0.3015736,70.6838796,373.6405633,230.7339710,1601.0435479
0.2075000,0.2075000,0.2075000,332.4935605,-0.2963292,60.7406996,332.4935605,204.8813711,1429.4815609
0.2100000,0.2100000,0.2100000,296.0120618,-0.2911792,52.0329620,296.0120618,181.9893556,1277.0624493
0.2125000,0.2125000,0.2125000,263.6467438,-0.2861226,44.4031451,263.6467438,161.7071406,1141.5492434
0.2150000,0.2150000,0.2150000,234.9157502,-0.2811582,37.7149982,234.9157502,143.7267182,1020.9789023
0.2175000,0.2175000,0.2175000,209.3959710,-0.2762854,31.8504864,209.3959710,127.7772802,913.6272441
0.2200000,0.2200000,0.2200000,186.7154524,-0.2715038,26.7072002,186.7154524,113.6204864,817.9785540
0.2225000,0.2225000,0.2225000,166.5467941,-0.2668139,22.1961575,166.5467941,101.0464886,732.6992230
0.2250000,0.2250000,0.2250000,148.6014340,-0.2622170,18.2399325,148.6014340,89.8705923,656.6148621
0.2275000,0.2275000,0.2275000,132.6247455,-0.2577153,14.7710629,132.6247455,79.9304154,588.6904158
0.2300000,0.2300000,0.2300000,118.3918741,-0.2533113,11.7306885,118.3918741,71.0833984,528.0128665
0.2325000,0.2325000,0.2325000,105.7042238,-0.2490075,9.0673885,105.7042238,63.2045491,473.7761792
0.2350000,0.2350000,0.2350000,94.3864797,-0.2448054,6.7361848,94.3864797,56.1843506,425.2681832
0.2375000,0.2375000,0.2375000,84.2840395,-0.2407049,4.6976871,84.2840395,49.9268112,381.8591318
0.2400000,0.2400000,0.2400000,75.2607348,-0.2367041,2.9173583,75.2607348,44.3476716,342.9917113
0.2425000,0.2425000,0.2425000,67.1967499,-0.2327990,1.3648820,67.1967499,39.3727954,308.1723028
0.2450000,0.2450000,0.2450000,59.9866898,-0.2289843,0.0136163,59.9866898,34.9367638,276.9633241
0.2475000,0.2475000,0.2475000,53.5377865,-0.2252536,-1.1598807,53.5377865,30.9816773,248.9765045
0.2500000,0.2500000,0.2500000,47.7682592,-0.2216003,-2.1762650,47.7682592,27.4561482,223.8669764
0.2525000,0.2525000,0.2525000,42.6058486,-0.2180185,-3.0537758,42.6058486,24.3144621,201.3280928
0.2550000,0.2550000,0.2550000,37.9865383,-0.2145028,-3.8085650,37.9865383,21.5158768,181.0869039
0.2575000,0.2575000,0.2575000,33.8534613,-0.2110489,-4.4549945,33.8534613,19.0240331,162.9002357
0.2600000,0.2600000,0.2600000,30.1559768,-0.2076534,-5.0058989,30.1559768,16.8064530,146.5513148
0.2625000,0.2625000,0.2625000,26.8488951,-0.2043138,-5.4728102,26.8488951,14.8341066,131.8468684
0.2650000,0.2650000,0.2650000,23.8918247,-0.2010283,-5.8661392,23.8918247,13.0810345,118.6146239
0.2675000,0.2675000,0.2675000,21.2486193,-0.1977957,-6.1953127,21.2486193,11.5240100,106.7011195
0.2700000,0.2700000,0.2700000,18.8869034,-0.1946151,-6.4688702,18.8869034,10.1422352,95.9697507
0.2725000,0.2725000,0.2725000,16.7776622,-0.1914859,-6.6945300,16.7776622,8.9170565,86.2989890
0.2750000,0.2750000,0.2750000,14.8948806,-0.1884077,-6.8792356,14.8948806,7.8316981,77.5807361
0.2775000,0.2775000,0.2775000,13.2152233,-0.1853801,-7.0291902,13.2152233,6.8710072,69.7188008
0.2800000,0.2800000,0.2800000,11.7177457,-0.1824028,-7.1498818,11.7177457,6.0212193,62.6274989
0.2825000,0.2825000,0.2825000,10.3836270,-0.1794751,-7.2461006,10.3836270,5.2697529,56.2303882
0.2850000,0.2850000,0.2850000,9.1959201,-0.1765964,-7.3219464,9.1959201,4.6050502,50.4591432
0.2875000,0.2875000,0.2875000,8.1393139,-0.1737652,-7.3808340,8.1393139,4.0164750,45.2525713
0.2900000,0.2900000,0.2900000,7.1999109,-0.1709796,-7.4255039,7.1999109,3.4942745,40.5557629
0.2925000,0.2925000,0.2925000,6.3650258,-0.1682366,-7.4580521,6.3650258,3.0295955,36.3193607
0.2950000,0.2950000,0.2950000,5.6230185,-0.1655323,-7.4799860,5.6230185,2.6145363,32.4989344
0.2975000,0.2975000,0.2975000,4.9631714,-0.1628620,-7.4923091,4.9631714,2.2422063,29.0544419
0.3000000,0.3000000,0.3000000,4.3756196,-0.1602206,-7.4956269,4.3756196,1.9067619,25.9497633
0.3025000,0.3025000,0.3025000,3.8513326,-0.1576035,-7.4902635,3.8513326,1.6033981,23.1522951
0.3050000,0.3050000,0.3050000,3.3821377,-0.1550066,-7.4763792,3.3821377,1.3282841,20.6325930
0.3075000,0.3075000,0.3075000,2.9607645,-0.1524279,-7.4540801,2.9607645,1.0784473,18.3640554
0.3100000,0.3100000,0.3100000,2.5808869,-0.1498672,-7.4235170,2.5808869,0.8516226,16.3226416
0.3125000,0.3125000,0.3125000,2.2371398,-0.1473267,-7.3849668,2.2371398,0.6460867,14.4866176
0.3150000,0.3150000,0.3150000,1.9250956,-0.1448106,-7.3388882,1.9250956,0.4604993,12.8363249
0.3175000,0.3175000,0.3175000,1.6411943,-0.1423244,-7.2859380,1.6411943,0.2937636,11.3539677
0.3200000,0.3200000,0.3200000,1.3826338,-0.1398741,-7.2269450,1.3826338,0.1449168,10.0234134
0.3225000,0.3225000,0.3225000,1.1472348,-0.1374659,-7.1628465,1.1472348,0.0130490,8.8300052
0.3250000,0.3250000,0.3250000,0.9332969,-0.1351047,-7.0946087,0.9332969,-0.1027494,7.7603857
0.3275000,0.3275000,0.3275000,0.7394618,-0.1327945,-7.0231532,0.7394618,-0.2034191,6.8023338
0.3300000,0.3300000,0.3300000,0.5645940,-0.1305373,-6.9493112,0.5645940,-0.2899471,5.9446222
0.3325000,0.3325000,0.3325000,0.4076862,-0.1283335,-6.8738110,0.4076862,-0.3633705,5.1768983
0.3350000,0.3350000,0.3350000,0.2677887,-0.1261815,-6.7972950,0.2677887,-0.4247750,4.4895975
0.3375000,0.3375000,0.3375000,0.1439616,-0.1240778,-6.7203501,0.1439616,-0.4752884,3.8738905
0.3400000,0.3400000,0.3400000,0.0352452,-0.1220168,-6.6435362,0.0352452,-0.5160729,3.3216615
0.3425000,0.3425000,0.3425000,-0.0593564,-0.1199911,-6.5673984,-0.0593564,-0.5483125,2.8255139
0.3450000,0.3450000,0.3450000,-0.1408817,-0.1179911,-6.4924572,-0.1408817,-0.5731981,2.3787889
0.3475000,0.3475000,0.3475000,-0.2104128,-0.1160051,-6.4191815,-0.2104128,-0.5919076,1.9755868
0.3500000,0.3500000,0.3500000,-0.2690714,-0.1140189,-6.3479601,-0.2690714,-0.6055837,1.6107752
0.3525000,0.3525000,0.3525000,-0.3180107,-0.1120168,-6.2790855,-0.3180107,-0.6153114,1.2799766
0.3550000,0.3550000,0.3550000,-0.3584030,-0.1099813,-6.2127600,-0.3584030,-0.6220958,0.9795271
0.3575000,0.3575000,0.3575000,-0.3914227,-0.1078952,-6.1491179,-0.3914227,-0.6268440,0.7064108
0.3600000,0.3600000,0.3600000,-0.4182255,-0.1057427,-6.0882445,-0.4182255,-0.6303499,0.4581716
0.3625000,0.3625000,0.3625000,-0.4399248,-0.1035112,-6.0301792,-0.4399248,-0.6332821,0.2328156
0.3650000,0.3650000,0.3650000,-0.4575690,-0.1011942,-5.9748980,-0.4575690,-0.6361761,0.0287095
0.3675000,0.3675000,0.3675000,-0.4721198,-0.0987923,-5.9222893,-0.4721198,-0.6394288,-0.1555132
0.3700000,0.3700000,0.3700000,-0.4844344,-0.0963145,-5.8721416,-0.4844344,-0.6432991,-0.3210355
0.3725000,0.3725000,0.3725000,-0.4952519,-0.0937786,-5.8241574,-0.4952519,-0.6479133,-0.4689247
0.3750000,0.3750000,0.3750000,-0.5051839,-0.0912099,-5.7779942,-0.5051839,-0.6532779,-0.6001848
0.3775000,0.3775000,0.3775000,-0.5147099,-0.0886393,-5.7333204,-0.5147099,-0.6592986,-0.7157962
0.3800000,0.3800000,0.3800000,-0.5241773,-0.0861004,-5.6898676,-0.5241773,-0.6658030,-0.8167419
0.3825000,0.3825000,0.3825000,-0.5338061,-0.0836257,-5.6474625,-0.5338061,-0.6725656,-0.9040258
0.3850000,0.3850000,0.3850000,-0.5437006,-0.0812437,-5.6060291,-0.5437006,-0.6793323,-0.9786817
0.3875000,0.3875000,0.3875000,-0.5538644,-0.0789762,-5.5655653,-0.5538644,-0.6858414,-1.0417764
0.3900000,0.3900000,0.3900000,-0.5642202,-0.0768359,-5.5261102,-0.5642202,-0.6918425,-1.0944057
0.3925000,0.3925000,0.3925000,-0.5746317,-0.0748268,-5.4877162,-0.5746317,-0.6971114,-1.1376858
0.3950000,0.3950000,0.3950000,-0.5849242,-0.0729443,-5.4504303,-0.5849242,-0.7014607,-1.1727386
0.3975000,0.3975000,0.3975000,-0.5949048,-0.0711772,-5.4142815,-0.5949048,-0.7047478,-1.2006745
0.4000000,0.4000000,0.4000000,-0.6043792,-0.0695090,-5.3792667,-0.6043792,-0.7068776,-1.2225726
0.4025000,0.4025000,0.4025000,-0.6131660,-0.0679205,-5.3453346,-0.6131660,-0.7078033,-1.2394603
0.4050000,0.4050000,0.4050000,-0.6211090,-0.0663908,-5.3123708,-0.6211090,-0.7075253,-1.2522946
0.4075000,0.4075000,0.4075000,-0.6280846,-0.0648989,-5.2801904,-0.6280846,-0.7060919,-1.2619461
0.4100000,0.4100000,0.4100000,-0.6340079,-0.0634238,-5.2485435,-0.6340079,-0.7036018,-1.2691856
0.4125000,0.4125000,0.4125000,-0.6388344,-0.0619456,-5.2171354,-0.6388344,-0.7002079,-1.2746748
0.4150000,0.4150000,0.4150000,-0.6425603,-0.0604459,-5.1856523,-0.6425603,-0.6961199,-1.2789604
0.4175000,0.4175000,0.4175000,-0.6452229,-0.0589080,-5.1537855,-0.6452229,-0.6916010,-1.2824727
0.4200000,0.4200000,0.4200000,-0.6469015,-0.0573181,-5.1212470,-0.6469015,-0.6869590,-1.2855289
0.4225000,0.4225000,0.4225000,-0.6477190,-0.0556657,-5.0877763,-0.6477190,-0.6825283,-1.2883402
0.4250000,0.4250000,0.4250000,-0.6478431,-0.0539445,-5.0531434,-0.6478431,-0.6786469,-1.2910236
0.4275000,0.4275000,0.4275000,-0.6474855,-0.0521528,-5.0171500,-0.6474855,-0.6756285,-1.2936167
0.4300000,0.4300000,0.4300000,-0.6468953,-0.0502937,-4.9796335,-0.6468953,-0.6737366,-1.2960942
0.4325000,0.4325000,0.4325000,-0.6463479,-0.0483752,-4.9404693,-0.6463479,-0.6731623,-1.2983853
0.4350000,0.4350000,0.4350000,-0.6461274,-0.0464101,-4.8995749,-0.6461274,-0.6740125,-1.3003907
0.4375000,0.4375000,0.4375000,-0.6465056,-0.0444154,-4.8569108,-0.6465056,-0.6763095,-1.3019983
0.4400000,0.4400000,0.4400000,-0.6477181,-0.0424114,-4.8124789,-0.6477181,-0.6800020,-1.3030965
0.4425000,0.4425000,0.4425000,-0.6499444,-0.0404216,-4.7663199,-0.6499444,-0.6849838,-1.3035863
0.4450000,0.4450000,0.4450000,-0.6532936,-0.0384706,-4.7185079,-0.6532936,-0.6911165,-1.3033895
0.4475000,0.4475000,0.4475000,-0.6578010,-0.0365837,-4.6691446,-0.6578010,-0.6982483,-1.3024557
0.4500000,0.4500000,0.4500000,-0.6634344,-0.0347848,-4.6183531,-0.6634344,-0.7062271,-1.3007661
0.4525000,0.4525000,0.4525000,-0.6701105,-0.0330951,-4.5662718,-0.6701105,-0.7149067,-1.2983363
0.4550000,0.4550000,0.4550000,-0.6777144,-0.0315310,-4.5130494,-0.6777144,-0.7241463,-1.2952170
0.4575000,0.4575000,0.4575000,-0.6861182,-0.0301039,-4.4588394,-0.6861182,-0.7338066,-1.2914939
0.4600000,0.4600000,0.4600000,-0.6951936,-0.0288186,-4.4037969,-0.6951936,-0.7437447,-1.2872862
0.4625000,0.4625000,0.4625000,-0.7048185,-0.0276740,-4.3480746,-0.7048185,-0.7538086,-1.2827439
0.4650000,0.4650000,0.4650000,-0.7148768,-0.0266636,-4.2918206,-0.7148768,-0.7638333,-1.2780424
0.4675000,0.4675000,0.4675000,-0.7252552,-0.0257767,-4.2351767,-0.7252552,-0.7736396,-1.2733756
0.4700000,0.4700000,0.4700000,-0.7358377,-0.0249995,-4.1782765,-0.7358377,-0.7830355,-1.2689450
0.4725000,0.4725000,0.4725000,-0.7465000,-0.0243169,-4.1212449,-0.7465000,-0.7918216,-1.2649457
0.4750000,0.4750000,0.4750000,-0.7571055,-0.0237132,-4.0641974,-0.7571055,-0.7998000,-1.2615522
0.4775000,0.4775000,0.4775000,-0.7675022,-0.0231738,-4.0072396,-0.7675022,-0.8067858,-1.2589040
0.4800000,0.4800000,0.4800000,-0.7775240,-0.0226855,-3.9504678,-0.7775240,-0.8126208,-1.2570970
0.4825000,0.4825000,0.4825000,-0.7869941,-0.0222373,-3.8939688,-0.7869941,-0.8171867,-1.2561803
0.4850000,0.4850000,0.4850000,-0.7957330,-0.0218203,-3.8378202,-0.7957330,-0.8204147,-1.2561586
0.4875000,0.4875000,0.4875000,-0.8035688,-0.0214277,-3.7820910,-0.8035688,-0.8222895,-1.2570007
0.4900000,0.4900000,0.4900000,-0.8103504,-0.0210546,-3.7268421,-0.8103504,-0.8228437,-1.2586478
0.4925000,0.4925000,0.4925000,-0.8159593,-0.0206974,-3.6721268,-0.8159593,-0.8221465,-1.2610223
0.4950000,0.4950000,0.4950000,-0.8203190,-0.0203534,-3.6179912,-0.8203190,-0.8202871,-1.2640341
0.4975000,0.4975000,0.4975000,-0.8233984,-0.0200209,-3.5644751,-0.8233984,-0.8173601,-1.2675839
0.5000000,0.5000000,0.5000000,-0.8252082,-0.0196986,-3.5116123,-0.8252082,-0.8134532,-1.2715650
0.5025000,0.5025000,0.5025000,-0.8257916,-0.0193853,-3.4594311,-0.8257916,-0.8086406,-1.2758636
0.5050000,0.5050000,0.5050000,-0.8252115,-0.0190803,-3.4079550,-0.8252115,-0.8029821,-1.2803568
0.5075000,0.5075000,0.5075000,-0.8235392,-0.0187828,-3.3572032,-0.8235392,-0.7965247,-1.2849117
0.5100000,0.5100000,0.5100000,-0.8208438,-0.0184923,-3.3071907,-0.8208438,-0.7893067,-1.2893843
0.5125000,0.5125000,0.5125000,-0.8171873,-0.0182085,-3.2579291,-0.8171873,-0.7813627,-1.2936200
0.5150000,0.5150000,0.5150000,-0.8126220,-0.0179309,-3.2094269,-0.8126220,-0.7727272,-1.2974560
0.5175000,0.5175000,0.5175000,-0.8071921,-0.0176594,-3.1616895,-0.8071921,-0.7634376,-1.3007275
0.5200000,0.5200000,0.5200000,-0.8009361,-0.0173939,-3.1147202,-0.8009361,-0.7535358,-1.3032751
0.5225000,0.5225000,0.5225000,-0.7938898,-0.0171344,-3.0685197,-0.7938898,-0.7430684,-1.3049539
0.5250000,0.5250000,0.5250000,-0.7860900,-0.0168808,-3.0230872,-0.7860900,-0.7320867,-1.3056424
0.5275000,0.5275000,0.5275000,-0.7775757,-0.0166333,-2.9784198,-0.7775757,-0.7206455,-1.3052482
0.5300000,0.5300000,0.5300000,-0.7683902,-0.0163917,-2.9345135,-0.7683902,-0.7088020,-1.3037109
0.5325000,0.5325000,0.5325000,-0.7585811,-0.0161561,-2.8913626,-0.7585811,-0.6966142,-1.3010005
0.5350000,0.5350000,0.5350000,-0.7482001,-0.0159265,-2.8489607,-0.7482001,-0.6841398,-1.2971129
0.5375000,0.5375000,0.5375000,-0.7373021,-0.0157027,-2.8073001,-0.7373021,-0.6714354,-1.2920637
0.5400000,0.5400000,0.5400000,-0.7259444,-0.0154848,-2.7663726,-0.7259444,-0.6585550,-1.2858811
0.5425000,0.5425000,0.5425000,-0.7141854,-0.0152725,-2.7261692,-0.7141854,-0.6455499,-1.2786012
0.5450000,0.5450000,0.5450000,-0.7020832,-0.0150656,-2.6866801,-0.7020832,-0.6324676,-1.2702630
0.5475000,0.5475000,0.5475000,-0.6896952,-0.0148641,-2.6478953,-0.6896952,-0.6193522,-1.2609070
0.5500000,0.5500000,0.5500000,-0.6770767,-0.0146677,-2.6098044,-0.6770767,-0.6062436,-1.2505738
0.5525000,0.5525000,0.5525000,-0.6642804,-0.0144762,-2.5723965,-0.6642804,-0.5931780,-1.2393047
0.5550000,0.5550000,0.5550000,-0.6513557,-0.0142894,-2.5356606,-0.6513557,-0.5801876,-1.2271425
0.5575000,0.5575000,0.5575000,-0.6383489,-0.0141071,-2.4995854,-0.6383489,-0.5673008,-1.2141321
0.5600000,0.5600000,0.5600000,-0.6253023,-0.0139290,-2.4641597,-0.6253023,-0.5545426,-1.2003217
0.5625000,0.5625000,0.5625000,-0.6122547,-0.0137549,-2.4293719,-0.6122547,-0.5419347,-1.1857626
0.5650000,0.5650000,0.5650000,-0.5992410,-0.0135847,-2.3952105,-0.5992410,-0.5294956,-1.1705099
0.5675000,0.5675000,0.5675000,-0.5862924,-0.0134182,-2.3616641,-0.5862924,-0.5172410,-1.1546216
0.5700000,0.5700000,0.5700000,-0.5734368,-0.0132551,-2.3287211,-0.5734368,-0.5051843,-1.1381583
0.5725000,0.5725000,0.5725000,-0.5606985,-0.0130953,-2.2963702,-0.5606985,-0.4933362,-1.1211823
0.5750000,0.5750000,0.5750000,-0.5480991,-0.0129387,-2.2645999,-0.5480991,-0.4817056,-1.1037568
0.5775000,0.5775000,0.5775000,-0.5356569,-0.0127850,-2.2333991,-0.5356569,-0.4702994,-1.0859449
0.5800000,0.5800000,0.5800000,-0.5233877,-0.0126343,-2.2027564,-0.5233877,-0.4591229,-1.0678089
0.5825000,0.5825000,0.5825000,-0.5113050,-0.0124862,-2.1726610,-0.5113050,-0.4481799,-1.0494094
0.5850000,0.5850000,0.5850000,-0.4994199,-0.0123408,-2.1431018,-0.4994199,-0.4374729,-1.0308049
0.5875000,0.5875000,0.5875000,-0.4877416,-0.0121979,-2.1140682,-0.4877416,-0.4270034,-1.0120509
0.5900000,0.5900000,0.5900000,-0.4762776,-0.0120574,-2.0855496,-0.4762776,-0.4167717,-0.9931998
0.5925000,0.5925000,0.5925000,-0.4650335,-0.0119193,-2.0575355,-0.4650335,-0.4067774,-0.9743008
0.5950000,0.5950000,0.5950000,-0.4540139,-0.0117834,-2.0300156,-0.4540139,-0.3970194,-0.9553991
0.5975000,0.5975000,0.5975000,-0.4432218,-0.0116496,-2.0029800,-0.4432218,-0.3874957,-0.9365364
0.6000000,0.6000000,0.6000000,-0.4326591,-0.0115180,-1.9764186,-0.4326591,-0.3782040,-0.9177509
0.6025000,0.6025000,0.6025000,-0.4223270,-0.0113884,-1.9503218,-0.4223270,-0.3691415,-0.8990769
0.6050000,0.6050000,0.6050000,-0.4122255,-0.0112608,-1.9246800,-0.4122255,-0.3603050,-0.8805453
0.6075000,0.6075000,0.6075000,-0.4023542,-0.0111351,-1.8994839,-0.4023542,-0.3516909,-0.8621836
0.6100000,0.6100000,0.6100000,-0.3927116,-0.0110112,-1.8747243,-0.3927116,-0.3432955,-0.8440162
0.6125000,0.6125000,0.6125000,-0.3832961,-0.0108892,-1.8503921,-0.3832961,-0.3351147,-0.8260644
0.6150000,0.6150000,0.6150000,-0.3741054,-0.0107690,-1.8264787,-0.3741054,-0.3271443,-0.8083468
0.6175000,0.6175000,0.6175000,-0.3651367,-0.0106505,-1.8029753,-0.3651367,-0.3193800,-0.7908794
0.6200000,0.6200000,0.6200000,-0.3563870,-0.0105337,-1.7798736,-0.3563870,-0.3118174,-0.7736756
0.6225000,0.6225000,0.6225000,-0.3478530,-0.0104185,-1.7571652,-0.3478530,-0.3044520,-0.7567469
0.6250000,0.6250000,0.6250000,-0.3395311,-0.0103050,-1.7348422,-0.3395311,-0.2972793,-0.7401026
0.6275000,0.6275000,0.6275000,-0.3314176,-0.0101931,-1.7128965,-0.3314176,-0.2902947,-0.7237505
0.6300000,0.6300000,0.6300000,-0.3235085,-0.0100828,-1.6913204,-0.3235085,-0.2834937,-0.7076963
0.6325000,0.6325000,0.6325000,-0.3157998,-0.0099739,-1.6701064,-0.3157998,-0.2768718,-0.6919445
0.6350000,0.6350000,0.6350000,-0.3082873,-0.0098666,-1.6492471,-0.3082873,-0.2704243,-0.6764983
0.6375000,0.6375000,0.6375000,-0.3009668,-0.0097608,-1.6287353,-0.3009668,-0.2641470,-0.6613597
0.6400000,0.6400000,0.6400000,-0.2938341,-0.0096564,-1.6085638,-0.2938341,-0.2580353,-0.6465295
0.6425000,0.6425000,0.6425000,-0.2868850,-0.0095534,-1.5887258,-0.2868850,-0.2520849,-0.6320077
0.6450000,0.6450000,0.6450000,-0.2801150,-0.0094519,-1.5692144,-0.2801150,-0.2462915,-0.6177936
0.6475000,0.6475000,0.6475000,-0.2735201,-0.0093517,-1.5500232,-0.2735201,-0.2406509,-0.6038855
0.6500000,0.6500000,0.6500000,-0.2670958,-0.0092529,-1.5311456,-0.2670958,-0.2351589,-0.5902812
0.6525000,0.6525000,0.6525000,-0.2608380,-0.0091553,-1.5125753,-0.2608380,-0.2298116,-0.5769780
0.6550000,0.6550000,0.6550000,-0.2547425,-0.0090592,-1.4943062,-0.2547425,-0.2246049,-0.5639726
0.6575000,0.6575000,0.6575000,-0.2488052,-0.0089643,-1.4763322,-0.2488052,-0.2195349,-0.5512615
0.6600000,0.6600000,0.6600000,-0.2430220,-0.0088706,-1.4586475,-0.2430220,-0.2145979,-0.5388407
0.6625000,0.6625000,0.6625000,-0.2373890,-0.0087782,-1.4412463,-0.2373890,-0.2097902,-0.5267057
0.6650000,0.6650000,0.6650000,-0.2319021,-0.0086871,-1.4241229,-0.2319021,-0.2051081,-0.5148523
0.6675000,0.6675000,0.6675000,-0.2265576,-0.0085971,-1.4072719,-0.2265576,-0.2005481,-0.5032755
0.6700000,0.6700000,0.6700000,-0.2213516,-0.0085084,-1.3906880,-0.2213516,-0.1961067,-0.4919706
0.6725000,0.6725000,0.6725000,-0.2162804,-0.0084208,-1.3743657,-0.2162804,-0.1917807,-0.4809324
0.6750000,0.6750000,0.6750000,-0.2113404,-0.0083343,-1.3583001,-0.2113404,-0.1875668,-0.4701560
0.6775000,0.6775000,0.6775000,-0.2065281,-0.0082490,-1.3424861,-0.2065281,-0.1834617,-0.4596359
0.6800000,0.6800000,0.6800000,-0.2018399,-0.0081649,-1.3269189,-0.2018399,-0.1794625,-0.4493671
0.6825000,0.6825000,0.6825000,-0.1972726,-0.0080818,-1.3115935,-0.1972726,-0.1755661,-0.4393443
0.6850000,0.6850000,0.6850000,-0.1928227,-0.0079998,-1.2965054,-0.1928227,-0.1717696,-0.4295620
0.6875000,0.6875000,0.6875000,-0.1884871,-0.0079189,-1.2816500,-0.1884871,-0.1680701,-0.4200152
0.6900000,0.6900000,0.6900000,-0.1842626,-0.0078390,-1.2670228,-0.1842626,-0.1644650,-0.4106984
0.6925000,0.6925000,0.6925000,-0.1801462,-0.0077602,-1.2526194,-0.1801462,-0.1609515,-0.4016065
0.6950000,0.6950000,0.6950000,-0.1761348,-0.0076823,-1.2384356,-0.1761348,-0.1575270,-0.3927344
0.6975000,0.6975000,0.6975000,-0.1722256,-0.0076055,-1.2244671,-0.1722256,-0.1541891,-0.3840767
0.7000000,0.7000000,0.7000000,-0.1684158,-0.0075297,-1.2107100,-0.1684158,-0.1509353,-0.3756286
0.7025000,0.7025000,0.7025000,-0.1647026,-0.0074549,-1.1971602,-0.1647026,-0.1477632,-0.3673849
0.7050000,0.7050000,0.7050000,-0.1610833,-0.0073810,-1.1838138,-0.1610833,-0.1446705,-0.3593408
0.7075000,0.7075000,0.7075000,-0.1575553,-0.0073080,-1.1706669,-0.1575553,-0.1416550,-0.3514914
0.7100000,0.7100000,0.7100000,-0.1541162,-0.0072360,-1.1577160,-0.1541162,-0.1387144,-0.3438319
0.7125000,0.7125000,0.7125000,-0.1507634,-0.0071649,-1.1449573,-0.1507634,-0.1358468,-0.3363576
0.7150000,0.7150000,0.7150000,-0.1474945,-0.0070947,-1.1323872,-0.1474945,-0.1330500,-0.3290640
0.7175000,0.7175000,0.7175000,-0.1443073,-0.0070254,-1.1200023,-0.1443073,-0.1303221,-0.3219465
0.7200000,0.7200000,0.7200000,-0.1411995,-0.0069570,-1.1077991,-0.1411995,-0.1276612,-0.3150008
0.7225000,0.7225000,0.7225000,-0.1381689,-0.0068895,-1.0957743,-0.1381689,-0.1250653,-0.3082225
0.7250000,0.7250000,0.7250000,-0.1352133,-0.0068228,-1.0839247,-0.1352133,-0.1225327,-0.3016073
0.7275000,0.7275000,0.7275000,-0.1323308,-0.0067569,-1.0722470,-0.1323308,-0.1200617,-0.2951512
0.7300000,0.7300000,0.7300000,-0.1295193,-0.0066919,-1.0607382,-0.1295193,-0.1176504,-0.2888500
0.7325000,0.7325000,0.7325000,-0.1267768,-0.0066276,-1.0493951,-0.1267768,-0.1152974,-0.2826999
0.7350000,0.7350000,0.7350000,-0.1241015,-0.0065642,-1.0382148,-0.1241015,-0.1130009,-0.2766970
0.7375000,0.7375000,0.7375000,-0.1214915,-0.0065016,-1.0271944,-0.1214915,-0.1107595,-0.2708375
0.7400000,0.7400000,0.7400000,-0.1189451,-0.0064397,-1.0163309,-0.1189451,-0.1085715,-0.2651178
0.7425000,0.7425000,0.7425000,-0.1164604,-0.0063786,-1.0056216,-0.1164604,-0.1064356,-0.2595342
0.7450000,0.7450000,0.7450000,-0.1140359,-0.0063183,-0.9950637,-0.1140359,-0.1043504,-0.2540834
0.7475000,0.7475000,0.7475000,-0.1116700,-0.0062587,-0.9846546,-0.1116700,-0.1023144,-0.2487617
0.7500000,0.7500000,0.7500000,-0.1093609,-0.0061998,-0.9743917,-0.1093609,-0.1003264,-0.2435660
0.7525000,0.7525000,0.7525000,-0.1071072,-0.0061417,-0.9642722,-0.1071072,-0.0983849,-0.2384930
0.7550000,0.7550000,0.7550000,-0.1049074,-0.0060843,-0.9542938,-0.1049074,-0.0964889,-0.2335396
0.7575000,0.7575000,0.7575000,-0.1027600,-0.0060275,-0.9444540,-0.1027600,-0.0946370,-0.2287026
0.7600000,0.7600000,0.7600000,-0.1006637,-0.0059715,-0.9347504,-0.1006637,-0.0928281,-0.2239792
0.7625000,0.7625000,0.7625000,-0.0986170,-0.0059162,-0.9251805,-0.0986170,-0.0910610,-0.2193663
0.7650000,0.7650000,0.7650000,-0.0966187,-0.0058615,-0.9157421,-0.0966187,-0.0893347,-0.2148611
0.7675000,0.7675000,0.7675000,-0.0946674,-0.0058075,-0.9064329,-0.0946674,-0.0876480,-0.2104609
0.7700000,0.7700000,0.7700000,-0.0927619,-0.0057541,-0.8972507,-0.0927619,-0.0859998,-0.2061630
0.7725000,0.7725000,0.7725000,-0.0909010,-0.0057014,-0.8881933,-0.0909010,-0.0843893,-0.2019647
0.7750000,0.7750000,0.7750000,-0.0890836,-0.0056493,-0.8792586,-0.0890836,-0.0828153,-0.1978636
0.7775000,0.7775000,0.7775000,-0.0873083,-0.0055978,-0.8704445,-0.0873083,-0.0812769,-0.1938571
0.7800000,0.7800000,0.7800000,-0.0855743,-0.0055469,-0.8617489,-0.0855743,-0.0797733,-0.1899428
0.7825000,0.7825000,0.7825000,-0.0838803,-0.0054967,-0.8531699,-0.0838803,-0.0783034,-0.1861183
0.7850000,0.7850000,0.7850000,-0.0822253,-0.0054470,-0.8447056,-0.0822253,-0.0768665,-0.1823815
0.7875000,0.7875000,0.7875000,-0.0806083,-0.0053980,-0.8363538,-0.0806083,-0.0754616,-0.1787300
0.7900000,0.7900000,0.7900000,-0.0790284,-0.0053495,-0.8281129,-0.0790284,-0.0740879,-0.1751617
0.7925000,0.7925000,0.7925000,-0.0774845,-0.0053015,-0.8199809,-0.0774845,-0.0727447,-0.1716745
0.7950000,0.7950000,0.7950000,-0.0759757,-0.0052542,-0.8119560,-0.0759757,-0.0714311,-0.1682663
0.7975000,0.7975000,0.7975000,-0.0745012,-0.0052074,-0.8040365,-0.0745012,-0.0701464,-0.1649352
0.8000000,0.8000000,0.8000000,-0.0730600,-0.0051611,-0.7962207,-0.0730600,-0.0688899,-0.1616792
0.8025000,0.8025000,0.8025000,-0.0716512,-0.0051154,-0.7885067,-0.0716512,-0.0676608,-0.1584964
0.8050000,0.8050000,0.8050000,-0.0702742,-0.0050702,-0.7808930,-0.0702742,-0.0664584,-0.1553850
0.8075000,0.8075000,0.8075000,-0.0689279,-0.0050256,-0.7733779,-0.0689279,-0.0652821,-0.1523431
0.8100000,0.8100000,0.8100000,-0.0676117,-0.0049814,-0.7659599,-0.0676117,-0.0641313,-0.1493692
0.8125000,0.8125000,0.8125000,-0.0663248,-0.0049378,-0.7586373,-0.0663248,-0.0630052,-0.1464614
0.8150000,0.8150000,0.8150000,-0.0650665,-0.0048947,-0.7514085,-0.0650665,-0.0619032,-0.1436181
0.8175000,0.8175000,0.8175000,-0.0638360,-0.0048521,-0.7442722,-0.0638360,-0.0608249,-0.1408377
0.8200000,0.8200000,0.8200000,-0.0626326,-0.0048099,-0.7372268,-0.0626326,-0.0597694,-0.1381186
0.8225000,0.8225000,0.8225000,-0.0614557,-0.0047682,-0.7302708,-0.0614557,-0.0587364,-0.1354595
0.8250000,0.8250000,0.8250000,-0.0603046,-0.0047271,-0.7234028,-0.0603046,-0.0577253,-0.1328586
0.8275000,0.8275000,0.8275000,-0.0591786,-0.0046863,-0.7166215,-0.0591786,-0.0567355,-0.1303147
0.8300000,0.8300000,0.8300000,-0.0580771,-0.0046461,-0.7099254,-0.0580771,-0.0557664,-0.1278264
0.8325000,0.8325000,0.8325000,-0.0569996,-0.0046063,-0.7033132,-0.0569996,-0.0548176,-0.1253922
0.8350000,0.8350000,0.8350000,-0.0559454,-0.0045669,-0.6967836,-0.0559454,-0.0538886,-0.1230108
0.8375000,0.8375000,0.8375000,-0.0549139,-0.0045280,-0.6903353,-0.0549139,-0.0529790,-0.1206810
0.8400000,0.8400000,0.8400000,-0.0539046,-0.0044895,-0.6839671,-0.0539046,-0.0520881,-0.1184015
0.8425000,0.8425000,0.8425000,-0.0529170,-0.0044515,-0.6776775,-0.0529170,-0.0512157,-0.1161711
0.8450000,0.8450000,0.8450000,-0.0519504,-0.0044139,-0.6714656,-0.0519504,-0.0503612,-0.1139886
0.8475000,0.8475000,0.8475000,-0.0510045,-0.0043767,-0.6653300,-0.0510045,-0.0495242,-0.1118529
0.8500000,0.8500000,0.8500000,-0.0500787,-0.0043399,-0.6592695,-0.0500787,-0.0487043,-0.1097627
0.8525000,0.8525000,0.8525000,-0.0491725,-0.0043035,-0.6532831,-0.0491725,-0.0479011,-0.1077171
0.8550000,0.8550000,0.8550000,-0.0482854,-0.0042675,-0.6473695,-0.0482854,-0.0471142,-0.1057149
0.8575000,0.8575000,0.8575000,-0.0474170,-0.0042319,-0.6415277,-0.0474170,-0.0463431,-0.1037551
0.8600000,0.8600000,0.8600000,-0.0465668,-0.0041967,-0.6357566,-0.0465668,-0.0455877,-0.1018368
0.8625000,0.8625000,0.8625000,-0.0457344,-0.0041619,-0.6300551,-0.0457344,-0.0448473,-0.0999588
0.8650000,0.8650000,0.8650000,-0.0449194,-0.0041275,-0.6244221,-0.0449194,-0.0441218,-0.0981203
0.8675000,0.8675000,0.8675000,-0.0441214,-0.0040934,-0.6188566,-0.0441214,-0.0434108,-0.0963203
0.8700000,0.8700000,0.8700000,-0.0433399,-0.0040597,-0.6133576,-0.0433399,-0.0427139,-0.0945580
0.8725000,0.8725000,0.8725000,-0.0425746,-0.0040264,-0.6079241,-0.0425746,-0.0420307,-0.0928323
0.8750000,0.8750000,0.8750000,-0.0418250,-0.0039935,-0.6025552,-0.0418250,-0.0413611,-0.0911426
0.8775000,0.8775000,0.8775000,-0.0410909,-0.0039609,-0.5972497,-0.0410909,-0.0407046,-0.0894878
0.8800000,0.8800000,0.8800000,-0.0403717,-0.0039286,-0.5920069,-0.0403717,-0.0400610,-0.0878673
0.8825000,0.8825000,0.8825000,-0.0396673,-0.0038967,-0.5868258,-0.0396673,-0.0394300,-0.0862802
0.8850000,0.8850000,0.8850000,-0.0389773,-0.0038652,-0.5817054,-0.0389773,-0.0388112,-0.0847257
0.8875000,0.8875000,0.8875000,-0.0383012,-0.0038339,-0.5766449,-0.0383012,-0.0382045,-0.0832031
0.8900000,0.8900000,0.8900000,-0.0376389,-0.0038030,-0.5716434,-0.0376389,-0.0376095,-0.0817116
0.8925000,0.8925000,0.8925000,-0.0369899,-0.0037725,-0.5667000,-0.0369899,-0.0370259,-0.0802505
0.8950000,0.8950000,0.8950000,-0.0363540,-0.0037422,-0.5618139,-0.0363540,-0.0364536,-0.0788192
0.8975000,0.8975000,0.8975000,-0.0357309,-0.0037123,-0.5569843,-0.0357309,-0.0358922,-0.0774169
0.9000000,0.9000000,0.9000000,-0.0351202,-0.0036827,-0.5522102,-0.0351202,-0.0353415,-0.0760430
0.9025000,0.9025000,0.9025000,-0.0345217,-0.0036534,-0.5474911,-0.0345217,-0.0348013,-0.0746968
0.9050000,0.9050000,0.9050000,-0.0339352,-0.0036244,-0.5428259,-0.0339352,-0.0342713,-0.0733777
0.9075000,0.9075000,0.9075000,-0.0333603,-0.0035957,-0.5382140,-0.0333603,-0.0337514,-0.0720851
0.9100000,0.9100000,0.9100000,-0.0327967,-0.0035674,-0.5336546,-0.0327967,-0.0332412,-0.0708183
0.9125000,0.9125000,0.9125000,-0.0322443,-0.0035393,-0.5291470,-0.0322443,-0.0327406,-0.0695769
0.9150000,0.9150000,0.9150000,-0.0317027,-0.0035115,-0.5246903,-0.0317027,-0.0322494,-0.0683601
0.9175000,0.9175000,0.9175000,-0.0311718,-0.0034840,-0.5202839,-0.0311718,-0.0317673,-0.0671676
0.9200000,0.9200000,0.9200000,-0.0306512,-0.0034567,-0.5159271,-0.0306512,-0.0312942,-0.0659987
0.9225000,0.9225000,0.9225000,-0.0301408,-0.0034298,-0.5116192,-0.0301408,-0.0308298,-0.0648528
0.9250000,0.9250000,0.9250000,-0.0296403,-0.0034031,-0.5073595,-0.0296403,-0.0303740,-0.0637296
0.9275000,0.9275000,0.9275000,-0.0291496,-0.0033767,-0.5031472,-0.0291496,-0.0299266,-0.0626284
0.9300000,0.9300000,0.9300000,-0.0286683,-0.0033506,-0.4989818,-0.0286683,-0.0294874,-0.0615488
0.9325000,0.9325000,0.9325000,-0.0281963,-0.0033248,-0.4948626,-0.0281963,-0.0290562,-0.0604904
0.9350000,0.9350000,0.9350000,-0.0277334,-0.0032992,-0.4907890,-0.0277334,-0.0286328,-0.0594526
0.9375000,0.9375000,0.9375000,-0.0272794,-0.0032738,-0.4867602,-0.0272794,-0.0282172,-0.0584349
0.9400000,0.9400000,0.9400000,-0.0268340,-0.0032488,-0.4827757,-0.0268340,-0.0278091,-0.0574370
0.9425000,0.9425000,0.9425000,-0.0263971,-0.0032240,-0.4788350,-0.0263971,-0.0274083,-0.0564585
0.9450000,0.9450000,0.9450000,-0.0259686,-0.0031994,-0.4749373,-0.0259686,-0.0270148,-0.0554988
0.9475000,0.9475000,0.9475000,-0.0255482,-0.0031751,-0.4710820,-0.0255482,-0.0266283,-0.0545576
0.9500000,0.9500000,0.9500000,-0.0251357,-0.0031510,-0.4672687,-0.0251357,-0.0262487,-0.0536345
0.9525000,0.9525000,0.9525000,-0.0247310,-0.0031271,-0.4634967,-0.0247310,-0.0258758,-0.0527291
0.9550000,0.9550000,0.9550000,-0.0243339,-0.0031035,-0.4597655,-0.0243339,-0.0255096,-0.0518410
0.9575000,0.9575000,0.9575000,-0.0239443,-0.0030802,-0.4560745,-0.0239443,-0.0251498,-0.0509698
0.9600000,0.9600000,0.9600000,-0.0235619,-0.0030570,-0.4524232,-0.0235619,-0.0247964,-0.0501152
0.9625000,0.9625000,0.9625000,-0.0231867,-0.0030341,-0.4488111,-0.0231867,-0.0244493,-0.0492768
0.9650000,0.9650000,0.9650000,-0.0228185,-0.0030115,-0.4452375,-0.0228185,-0.0241082,-0.0484542
0.9675000,0.9675000,0.9675000,-0.0224570,-0.0029890,-0.4417020,-0.0224570,-0.0237730,-0.0476472
0.9700000,0.9700000,0.9700000,-0.0221023,-0.0029668,-0.4382042,-0.0221023,-0.0234437,-0.0468554
0.9725000,0.9725000,0.9725000,-0.0217541,-0.0029448,-0.4347434,-0.0217541,-0.0231201,-0.0460784
0.9750000,0.9750000,0.9750000,-0.0214124,-0.0029230,-0.4313192,-0.0214124,-0.0228021,-0.0453160
0.9775000,0.9775000,0.9775000,-0.0210769,-0.0029014,-0.4279311,-0.0210769,-0.0224896,-0.0445679
0.9800000,0.9800000,0.9800000,-0.0207475,-0.0028800,-0.4245786,-0.0207475,-0.0221825,-0.0438337
0.9825000,0.9825000,0.9825000,-0.0204242,-0.0028589,-0.4212613,-0.0204242,-0.0218806,-0.0431131
0.9850000,0.9850000,0.9850000,-0.0201067,-0.0028379,-0.4179787,-0.0201067,-0.0215839,-0.0424060
0.9875000,0.9875000,0.9875000,-0.0197950,-0.0028171,-0.4147303,-0.0197950,-0.0212922,-0.0417119
0.9900000,0.9900000,0.9900000,-0.0194890,-0.0027966,-0.4115157,-0.0194890,-0.0210055,-0.0410306
0.9925000,0.9925000,0.9925000,-0.0191885,-0.0027762,-0.4083344,-0.0191885,-0.0207237,-0.0403619
0.9950000,0.9950000,0.9950000,-0.0188933,-0.0027561,-0.4051861,-0.0188933,-0.0204466,-0.0397054
0.9975000,0.9975000,0.9975000,-0.0186035,-0.0027361,-0.4020703,-0.0186035,-0.0201742,-0.0390610
1.0000000,1.0000000,1.0000000,-0.0183189,-0.0027163,-0.3989865,-0.0183189,-0.0199063,-0.0384284
1.0025000,1.0025000,1.0025000,-0.0180394,-0.0026967,-0.3959344,-0.0180394,-0.0196429,-0.0378073
1.0050000,1.0050000,1.0050000,-0.0177648,-0.0026773,-0.3929136,-0.0177648,-0.0193839,-0.0371975
1.0075000,1.0075000,1.0075000,-0.0174952,-0.0026581,-0.3899235,-0.0174952,-0.0191292,-0.0365988
1.0100000,1.0100000,1.0100000,-0.0172303,-0.0026391,-0.3869640,-0.0172303,-0.0188787,-0.0360109
1.0125000,1.0125000,1.0125000,-0.0169701,-0.0026202,-0.3840345,-0.0169701,-0.0186324,-0.0354337
1.0150000,1.0150000,1.0150000,-0.0167145,-0.0026015,-0.3811346,-0.0167145,-0.0183901,-0.0348669
1.0175000,1.0175000,1.0175000,-0.0164634,-0.0025830,-0.3782641,-0.0164634,-0.0181518,-0.0343102
1.0200000,1.0200000,1.0200000,-0.0162167,-0.0025647,-0.3754225,-0.0162167,-0.0179174,-0.0337636
1.0225000,1.0225000,1.0225000,-0.0159743,-0.0025466,-0.3726095,-0.0159743,-0.0176868,-0.0332267
1.0250000,1.0250000,1.0250000,-0.0157361,-0.0025286,-0.3698246,-0.0157361,-0.0174599,-0.0326994
1.0275000,1.0275000,1.0275000,-0.0155021,-0.0025108,-0.3670677,-0.0155021,-0.0172368,-0.0321815
1.0300000,1.0300000,1.0300000,-0.0152722,-0.0024931,-0.3643382,-0.0152722,-0.0170172,-0.0316728
1.0325000,1.0325000,1.0325000,-0.0150462,-0.0024756,-0.3616359,-0.0150462,-0.0168012,-0.0311732
1.0350000,1.0350000,1.0350000,-0.0148242,-0.0024583,-0.3589604,-0.0148242,-0.0165887,-0.0306824
1.0375000,1.0375000,1.0375000,-0.0146059,-0.0024411,-0.3563113,-0.0146059,-0.0163795,-0.0302002
1.0400000,1.0400000,1.0400000,-0.0143915,-0.0024241,-0.3536885,-0.0143915,-0.0161737,-0.0297266
1.0425000,1.0425000,1.0425000,-0.0141807,-0.0024073,-0.3510914,-0.0141807,-0.0159712,-0.0292612
1.0450000,1.0450000,1.0450000,-0.0139735,-0.0023906,-0.3485199,-0.0139735,-0.0157719,-0.0288041
1.0475000,1.0475000,1.0475000,-0.0137698,-0.0023740,-0.3459736,-0.0137698,-0.0155757,-0.0283549
1.0500000,1.0500000,1.0500000,-0.0135696,-0.0023577,-0.3434521,-0.0135696,-0.0153827,-0.0279135
1.0525000,1.0525000,1.0525000,-0.0133728,-0.0023414,-0.3409553,-0.0133728,-0.0151926,-0.0274799
1.0550000,1.0550000,1.0550000,-0.0131794,-0.0023253,-0.3384827,-0.0131794,-0.0150056,-0.0270538
1.0575000,1.0575000,1.0575000,-0.0129892,-0.0023094,-0.3360341,-0.0129892,-0.0148215,-0.0266351
1.0600000,1.0600000,1.0600000,-0.0128022,-0.0022936,-0.3336092,-0.0128022,-0.0146402,-0.0262236
1.0625000,1.0625000,1.0625000,-0.0126184,-0.0022779,-0.3312077,-0.0126184,-0.0144618,-0.0258192
1.0650000,1.0650000,1.0650000,-0.0124376,-0.0022624,-0.3288293,-0.0124376,-0.0142861,-0.0254218
1.0675000,1.0675000,1.0675000,-0.0122599,-0.0022470,-0.3264738,-0.0122599,-0.0141132,-0.0250312
1.0700000,1.0700000,1.0700000,-0.0120851,-0.0022318,-0.3241409,-0.0120851,-0.0139429,-0.0246473
1.0725000,1.0725000,1.0725000,-0.0119133,-0.0022167,-0.3218302,-0.0119133,-0.0137752,-0.0242700
1.0750000,1.0750000,1.0750000,-0.0117443,-0.0022017,-0.3195416,-0.0117443,-0.0136101,-0.0238991
1.0775000,1.0775000,1.0775000,-0.0115781,-0.0021869,-0.3172747,-0.0115781,-0.0134475,-0.0235346
1.0800000,1.0800000,1.0800000,-0.0114146,-0.0021722,-0.3150294,-0.0114146,-0.0132874,-0.0231762
1.0825000,1.0825000,1.0825000,-0.0112539,-0.0021576,-0.3128053,-0.0112539,-0.0131297,-0.0228239
1.0850000,1.0850000,1.0850000,-0.0110958,-0.0021432,-0.3106022,-0.0110958,-0.0129744,-0.0224776
1.0875000,1.0875000,1.0875000,-0.0109402,-0.0021288,-0.3084198,-0.0109402,-0.0128215,-0.0221372
1.0900000,1.0900000,1.0900000,-0.0107873,-0.0021147,-0.3062580,-0.0107873,-0.0126708,-0.0218024
1.0925000,1.0925000,1.0925000,-0.0106368,-0.0021006,-0.3041164,-0.0106368,-0.0125225,-0.0214733
1.0950000,1.0950000,1.0950000,-0.0104888,-0.0020867,-0.3019948,-0.0104888,-0.0123763,-0.0211498
1.0975000,1.0975000,1.0975000,-0.0103431,-0.0020728,-0.2998931,-0.0103431,-0.0122323,-0.0208316
1.1000000,1.1000000,1.1000000,-0.0101999,-0.0020591,-0.2978109,-0.0101999,-0.0120905,-0.0205188
1.1025000,1.1025000,1.1025000,-0.0100589,-0.0020456,-0.2957480,-0.0100589,-0.0119507,-0.0202111
1.1050000,1.1050000,1.1050000,-0.0099203,-0.0020321,-0.2937043,-0.0099203,-0.0118131,-0.0199086
1.1075000,1.1075000,1.1075000,-0.0097838,-0.0020188,-0.2916794,-0.0097838,-0.0116774,-0.0196112
1.1100000,1.1100000,1.1100000,-0.0096496,-0.0020055,-0.2896732,-0.0096496,-0.0115438,-0.0193186
1.1125000,1.1125000,1.1125000,-0.0095175,-0.0019924,-0.2876854,-0.0095175,-0.0114121,-0.0190309
1.1150000,1.1150000,1.1150000,-0.0093875,-0.0019794,-0.2857159,-0.0093875,-0.0112823,-0.0187479
1.1175000,1.1175000,1.1175000,-0.0092596,-0.0019666,-0.2837644,-0.0092596,-0.0111544,-0.0184696
1.1200000,1.1200000,1.1200000,-0.0091337,-0.0019538,-0.2818307,-0.0091337,-0.0110284,-0.0181959
1.1225000,1.1225000,1.1225000,-0.0090099,-0.0019411,-0.2799147,-0.0090099,-0.0109042,-0.0179266
1.1250000,1.1250000,1.1250000,-0.0088880,-0.0019286,-0.2780160,-0.0088880,-0.0107818,-0.0176618
1.1275000,1.1275000,1.1275000,-0.0087680,-0.0019161,-0.2761346,-0.0087680,-0.0106612,-0.0174013
1.1300000,1.1300000,1.1300000,-0.0086499,-0.0019038,-0.2742702,-0.0086499,-0.0105423,-0.0171450
1.1325000,1.1325000,1.1325000,-0.0085336,-0.0018915,-0.2724226,-0.0085336,-0.0104251,-0.0168929
1.1350000,1.1350000,1.1350000,-0.0084192,-0.0018794,-0.2705917,-0.0084192,-0.0103096,-0.0166449
1.1375000,1.1375000,1.1375000,-0.0083066,-0.0018674,-0.2687772,-0.0083066,-0.0101958,-0.0164010
1.1400000,1.1400000,1.1400000,-0.0081957,-0.0018554,-0.2669790,-0.0081957,-0.0100835,-0.0161609
1.1425000,1.1425000,1.1425000,-0.0080866,-0.0018436,-0.2651969,-0.0080866,-0.0099728,-0.0159248
1.1450000,1.1450000,1.1450000,-0.0079792,-0.0018319,-0.2634307,-0.0079792,-0.0098637,-0.0156924
1.1475000,1.1475000,1.1475000,-0.0078734,-0.0018203,-0.2616802,-0.0078734,-0.0097562,-0.0154638
1.1500000,1.1500000,1.1500000,-0.0077693,-0.0018087,-0.2599452,-0.0077693,-0.0096501,-0.0152388
1.1525000,1.1525000,1.1525000,-0.0076667,-0.0017973,-0.2582256,-0.0076667,-0.0095456,-0.0150175
1.1550000,1.1550000,1.1550000,-0.0075658,-0.0017860,-0.2565213,-0.0075658,-0.0094425,-0.0147996
1.1575000,1.1575000,1.1575000,-0.0074664,-0.0017747,-0.2548319,-0.0074664,-0.0093408,-0.0145853
1.1600000,1.1600000,1.1600000,-0.0073685,-0.0017636,-0.2531575,-0.0073685,-0.0092405,-0.0143744
1.1625000,1.1625000,1.1625000,-0.0072722,-0.0017525,-0.2514977,-0.0072722,-0.0091417,-0.0141668
1.1650000,1.1650000,1.1650000,-0.0071773,-0.0017416,-0.2498525,-0.0071773,-0.0090442,-0.0139625
1.1675000,1.1675000,1.1675000,-0.0070838,-0.0017307,-0.2482217,-0.0070838,-0.0089480,-0.0137614
1.1700000,1.1700000,1.1700000,-0.0069918,-0.0017199,-0.2466051,-0.0069918,-0.0088532,-0.0135635
1.1725000,1.1725000,1.1725000,-0.0069011,-0.0017092,-0.2450025,-0.0069011,-0.0087597,-0.0133688
1.1750000,1.1750000,1.1750000,-0.0068119,-0.0016986,-0.2434139,-0.0068119,-0.0086674,-0.0131771
1.1775000,1.1775000,1.1775000,-0.0067239,-0.0016881,-0.2418391,-0.0067239,-0.0085764,-0.0129884
1.1800000,1.1800000,1.1800000,-0.0066374,-0.0016776,-0.2402779,-0.0066374,-0.0084866,-0.0128027
1.1825000,1.1825000,1.1825000,-0.0065521,-0.0016673,-0.2387301,-0.0065521,-0.0083981,-0.0126198
1.1850000,1.1850000,1.1850000,-0.0064681,-0.0016570,-0.2371957,-0.0064681,-0.0083107,-0.0124399
1.1875000,1.1875000,1.1875000,-0.0063853,-0.0016468,-0.2356744,-0.0063853,-0.0082246,-0.0122627
1.1900000,1.1900000,1.1900000,-0.0063038,-0.0016367,-0.2341662,-0.0063038,-0.0081396,-0.0120883
1.1925000,1.1925000,1.1925000,-0.0062235,-0.0016267,-0.2326709,-0.0062235,-0.0080557,-0.0119166
1.1950000,1.1950000,1.1950000,-0.0061444,-0.0016168,-0.2311884,-0.0061444,-0.0079729,-0.0117475
1.1975000,1.1975000,1.1975000,-0.0060664,-0.0016069,-0.2297184,-0.0060664,-0.0078913,-0.0115811
1.2000000,1.2000000,1.2000000,-0.0059897,-0.0015972,-0.2282610,-0.0059897,-0.0078107,-0.0114173
1.2025000,1.2025000,1.2025000,-0.0059140,-0.0015875,-0.2268159,-0.0059140,-0.0077312,-0.0112559
1.2050000,1.2050000,1.2050000,-0.0058395,-0.0015778,-0.2253831,-0.0058395,-0.0076528,-0.0110971
1.2075000,1.2075000,1.2075000,-0.0057660,-0.0015683,-0.2239623,-0.0057660,-0.0075754,-0.0109407
1.2100000,1.2100000,1.2100000,-0.0056937,-0.0015588,-0.2225535,-0.0056937,-0.0074990,-0.0107867
1.2125000,1.2125000,1.2125000,-0.0056224,-0.0015495,-0.2211566,-0.0056224,-0.0074236,-0.0106350
1.2150000,1.2150000,1.2150000,-0.0055521,-0.0015401,-0.2197713,-0.0055521,-0.0073492,-0.0104857
1.2175000,1.2175000,1.2175000,-0.0054829,-0.0015309,-0.2183977,-0.0054829,-0.0072757,-0.0103386
1.2200000,1.2200000,1.2200000,-0.0054147,-0.0015217,-0.2170355,-0.0054147,-0.0072033,-0.0101938
1.2225000,1.2225000,1.2225000,-0.0053475,-0.0015126,-0.2156847,-0.0053475,-0.0071317,-0.0100511
1.2250000,1.2250000,1.2250000,-0.0052812,-0.0015036,-0.2143451,-0.0052812,-0.0070611,-0.0099107
1.2275000,1.2275000,1.2275000,-0.0052159,-0.0014947,-0.2130167,-0.0052159,-0.0069914,-0.0097723
1.2300000,1.2300000,1.2300000,-0.0051516,-0.0014858,-0.2116992,-0.0051516,-0.0069226,-0.0096361
1.2325000,1.2325000,1.2325000,-0.0050881,-0.0014770,-0.2103926,-0.0050881,-0.0068547,-0.0095019
1.2350000,1.2350000,1.2350000,-0.0050256,-0.0014682,-0.2090968,-0.0050256,-0.0067876,-0.0093697
1.2375000,1.2375000,1.2375000,-0.0049640,-0.0014596,-0.2078117,-0.0049640,-0.0067214,-0.0092395
1.2400000,1.2400000,1.2400000,-0.0049033,-0.0014510,-0.2065371,-0.0049033,-0.0066561,-0.0091113
1.2425000,1.2425000,1.2425000,-0.0048434,-0.0014424,-0.2052729,-0.0048434,-0.0065916,-0.0089850
1.2450000,1.2450000,1.2450000,-0.0047844,-0.0014339,-0.2040191,-0.0047844,-0.0065279,-0.0088606
1.2475000,1.2475000,1.2475000,-0.0047262,-0.0014255,-0.2027756,-0.0047262,-0.0064650,-0.0087380
1.2500000,1.2500000,1.2500000,-0.0046688,-0.0014172,-0.2015421,-0.0046688,-0.0064028,-0.0086173
1.2525000,1.2525000,1.2525000,-0.0046123,-0.0014089,-0.2003187,-0.0046123,-0.0063415,-0.0084983
1.2550000,1.2550000,1.2550000,-0.0045566,-0.0014007,-0.1991052,-0.0045566,-0.0062810,-0.0083811
1.2575000,1.2575000,1.2575000,-0.0045016,-0.0013926,-0.1979015,-0.0045016,-0.0062212,-0.0082657
1.2600000,1.2600000,1.2600000,-0.0044474,-0.0013845,-0.1967076,-0.0044474,-0.0061621,-0.0081520
1.2625000,1.2625000,1.2625000,-0.0043940,-0.0013765,-0.1955232,-0.0043940,-0.0061038,-0.0080399
1.2650000,1.2650000,1.2650000,-0.0043413,-0.0013685,-0.1943484,-0.0043413,-0.0060462,-0.0079295
1.2675000,1.2675000,1.2675000,-0.0042894,-0.0013606,-0.1931830,-0.0042894,-0.0059893,-0.0078207
1.2700000,1.2700000,1.2700000,-0.0042382,-0.0013527,-0.1920270,-0.0042382,-0.0059331,-0.0077136
1.2725000,1.2725000,1.2725000,-0.0041877,-0.0013450,-0.1908802,-0.0041877,-0.0058776,-0.0076080
1.2750000,1.2750000,1.2750000,-0.0041379,-0.0013372,-0.1897425,-0.0041379,-0.0058228,-0.0075039
1.2775000,1.2775000,1.2775000,-0.0040888,-0.0013296,-0.1886139,-0.0040888,-0.0057687,-0.0074014
1.2800000,1.2800000,1.2800000,-0.0040404,-0.0013220,-0.1874943,-0.0040404,-0.0057152,-0.0073003
1.2825000,1.2825000,1.2825000,-0.0039926,-0.0013144,-0.1863835,-0.0039926,-0.0056623,-0.0072008
1.2850000,1.2850000,1.2850000,-0.0039456,-0.0013069,-0.1852816,-0.0039456,-0.0056102,-0.0071027
1.2875000,1.2875000,1.2875000,-0.0038991,-0.0012995,-0.1841883,-0.0038991,-0.0055586,-0.0070060
1.2900000,1.2900000,1.2900000,-0.0038533,-0.0012921,-0.1831037,-0.0038533,-0.0055077,-0.0069107
1.2925000,1.2925000,1.2925000,-0.0038081,-0.0012848,-0.1820276,-0.0038081,-0.0054573,-0.0068168
1.2950000,1.2950000,1.2950000,-0.0037636,-0.0012775,-0.1809599,-0.0037636,-0.0054076,-0.0067242
1.2975000,1.2975000,1.2975000,-0.0037196,-0.0012703,-0.1799006,-0.0037196,-0.0053585,-0.0066330
1.3000000,1.3000000,1.3000000,-0.0036763,-0.0012632,-0.1788496,-0.0036763,-0.0053100,-0.0065431
1.3025000,1.3025000,1.3025000,-0.0036335,-0.0012561,-0.1778068,-0.0036335,-0.0052620,-0.0064545
1.3050000,1.3050000,1.3050000,-0.0035913,-0.0012490,-0.1767721,-0.0035913,-0.0052146,-0.0063672
1.3075000,1.3075000,1.3075000,-0.0035497,-0.0012420,-0.1757454,-0.0035497,-0.0051678,-0.0062811
1.3100000,1.3100000,1.3100000,-0.0035087,-0.0012351,-0.1747267,-0.0035087,-0.0051216,-0.0061963
1.3125000,1.3125000,1.3125000,-0.0034682,-0.0012282,-0.1737159,-0.0034682,-0.0050758,-0.0061126
1.3150000,1.3150000,1.3150000,-0.0034282,-0.0012213,-0.1727129,-0.0034282,-0.0050307,-0.0060302
1.3175000,1.3175000,1.3175000,-0.0033888,-0.0012145,-0.1717177,-0.0033888,-0.0049860,-0.0059489
1.3200000,1.3200000,1.3200000,-0.0033499,-0.0012078,-0.1707301,-0.0033499,-0.0049419,-0.0058688
1.3225000,1.3225000,1.3225000,-0.0033116,-0.0012011,-0.1697501,-0.0033116,-0.0048983,-0.0057898
1.3250000,1.3250000,1.3250000,-0.0032737,-0.0011944,-0.1687776,-0.0032737,-0.0048552,-0.0057120
1.3275000,1.3275000,1.3275000,-0.0032364,-0.0011879,-0.1678125,-0.0032364,-0.0048126,-0.0056352
1.3300000,1.3300000,1.3300000,-0.0031995,-0.0011813,-0.1668548,-0.0031995,-0.0047705,-0.0055596
1.3325000,1.3325000,1.3325000,-0.0031632,-0.0011748,-0.1659044,-0.0031632,-0.0047288,-0.0054850
1.3350000,1.3350000,1.3350000,-0.0031273,-0.0011683,-0.1649613,-0.0031273,-0.0046877,-0.0054115
1.3375000,1.3375000,1.3375000,-0.0030919,-0.0011619,-0.1640253,-0.0030919,-0.0046470,-0.0053390
1.3400000,1.3400000,1.3400000,-0.0030570,-0.0011556,-0.1630964,-0.0030570,-0.0046068,-0.0052675
1.3425000,1.3425000,1.3425000,-0.0030225,-0.0011493,-0.1621745,-0.0030225,-0.0045671,-0.0051970
1.3450000,1.3450000,1.3450000,-0.0029885,-0.0011430,-0.1612595,-0.0029885,-0.0045278,-0.0051275
1.3475000,1.3475000,1.3475000,-0.0029549,-0.0011368,-0.1603515,-0.0029549,-0.0044890,-0.0050590
1.3500000,1.3500000,1.3500000,-0.0029218,-0.0011306,-0.1594503,-0.0029218,-0.0044506,-0.0049914
1.3525000,1.3525000,1.3525000,-0.0028891,-0.0011245,-0.1585559,-0.0028891,-0.0044126,-0.0049248
1.3550000,1.3550000,1.3550000,-0.0028568,-0.0011184,-0.1576681,-0.0028568,-0.0043751,-0.0048591
1.3575000,1.3575000,1.3575000,-0.0028249,-0.0011123,-0.1567870,-0.0028249,-0.0043380,-0.0047943
1.3600000,1.3600000,1.3600000,-0.0027935,-0.0011063,-0.1559125,-0.0027935,-0.0043013,-0.0047304
1.3625000,1.3625000,1.3625000,-0.0027625,-0.0011004,-0.1550445,-0.0027625,-0.0042650,-0.0046674
1.3650000,1.3650000,1.3650000,-0.0027319,-0.0010945,-0.1541829,-0.0027319,-0.0042291,-0.0046053
1.3675000,1.3675000,1.3675000,-0.0027016,-0.0010886,-0.1533278,-0.0027016,-0.0041937,-0.0045441
1.3700000,1.3700000,1.3700000,-0.0026718,-0.0010827,-0.1524789,-0.0026718,-0.0041586,-0.0044837
1.3725000,1.3725000,1.3725000,-0.0026423,-0.0010770,-0.1516364,-0.0026423,-0.0041239,-0.0044241
1.3750000,1.3750000,1.3750000,-0.0026133,-0.0010712,-0.1508000,-0.0026133,-0.0040896,-0.0043653
1.3775000,1.3775000,1.3775000,-0.0025846,-0.0010655,-0.1499698,-0.0025846,-0.0040557,-0.0043074
1.3800000,1.3800000,1.3800000,-0.0025562,-0.0010598,-0.1491458,-0.0025562,-0.0040221,-0.0042502
1.3825000,1.3825000,1.3825000,-0.0025283,-0.0010542,-0.1483277,-0.0025283,-0.0039889,-0.0041938
1.3850000,1.3850000,1.3850000,-0.0025006,-0.0010486,-0.1475157,-0.0025006,-0.0039561,-0.0041382
1.3875000,1.3875000,1.3875000,-0.0024734,-0.0010431,-0.1467096,-0.0024734,-0.0039237,-0.0040834
1.3900000,1.3900000,1.3900000,-0.0024465,-0.0010375,-0.1459094,-0.0024465,-0.0038916,-0.0040293
1.3925000,1.3925000,1.3925000,-0.0024199,-0.0010321,-0.1451150,-0.0024199,-0.0038598,-0.0039760
1.3950000,1.3950000,1.3950000,-0.0023937,-0.0010266,-0.1443263,-0.0023937,-0.0038284,-0.0039233
1.3975000,1.3975000,1.3975000,-0.0023677,-0.0010212,-0.1435434,-0.0023677,-0.0037973,-0.0038714
1.4000000,1.4000000,1.4000000,-0.0023422,-0.0010159,-0.1427662,-0.0023422,-0.0037666,-0.0038202
1.4025000,1.4025000,1.4025000,-0.0023169,-0.0010106,-0.1419946,-0.0023169,-0.0037362,-0.0037697
1.4050000,1.4050000,1.4050000,-0.0022920,-0.0010053,-0.1412286,-0.0022920,-0.0037061,-0.0037199
1.4075000,1.4075000,1.4075000,-0.0022674,-0.0010000,-0.1404680,-0.0022674,-0.0036764,-0.0036707
1.4100000,1.4100000,1.4100000,-0.0022430,-0.0009948,-0.1397130,-0.0022430,-0.0036470,-0.0036222
1.4125000,1.4125000,1.4125000,-0.0022190,-0.0009896,-0.1389633,-0.0022190,-0.0036178,-0.0035744
1.4150000,1.4150000,1.4150000,-0.0021953,-0.0009845,-0.1382191,-0.0021953,-0.0035890,-0.0035272
1.4175000,1.4175000,1.4175000,-0.0021719,-0.0009794,-0.1374801,-0.0021719,-0.0035605,-0.0034807
1.4200000,1.4200000,1.4200000,-0.0021488,-0.0009743,-0.1367464,-0.0021488,-0.0035323,-0.0034347
1.4225000,1.4225000,1.4225000,-0.0021259,-0.0009693,-0.1360180,-0.0021259,-0.0035044,-0.0033894
1.4250000,1.4250000,1.4250000,-0.0021034,-0.0009643,-0.1352947,-0.0021034,-0.0034768,-0.0033447
1.4275000,1.4275000,1.4275000,-0.0020811,-0.0009593,-0.1345766,-0.0020811,-0.0034495,-0.0033006
1.4300000,1.4300000,1.4300000,-0.0020591,-0.0009544,-0.1338636,-0.0020591,-0.0034225,-0.0032571
1.4325000,1.4325000,1.4325000,-0.0020374,-0.0009495,-0.1331556,-0.0020374,-0.0033958,-0.0032142
1.4350000,1.4350000,1.4350000,-0.0020159,-0.0009446,-0.1324526,-0.0020159,-0.0033693,-0.0031718
1.4375000,1.4375000,1.4375000,-0.0019947,-0.0009398,-0.1317545,-0.0019947,-0.0033431,-0.0031300
1.4400000,1.4400000,1.4400000,-0.0019738,-0.0009350,-0.1310614,-0.0019738,-0.0033172,-0.0030888
1.4425000,1.4425000,1.4425000,-0.0019531,-0.0009302,-0.1303731,-0.0019531,-0.0032916,-0.0030481
1.4450000,1.4450000,1.4450000,-0.0019327,-0.0009255,-0.1296897,-0.0019327,-0.0032662,-0.0030079
1.4475000,1.4475000,1.4475000,-0.0019125,-0.0009208,-0.1290110,-0.0019125,-0.0032411,-0.0029683
1.4500000,1.4500000,1.4500000,-0.0018926,-0.0009161,-0.1283371,-0.0018926,-0.0032162,-0.0029292
1.4525000,1.4525000,1.4525000,-0.0018729,-0.0009115,-0.1276679,-0.0018729,-0.0031916,-0.0028906
1.4550000,1.4550000,1.4550000,-0.0018534,-0.0009069,-0.1270033,-0.0018534,-0.0031672,-0.0028526
1.4575000,1.4575000,1.4575000,-0.0018342,-0.0009023,-0.1263434,-0.0018342,-0.0031431,-0.0028150
1.4600000,1.4600000,1.4600000,-0.0018152,-0.0008977,-0.1256880,-0.0018152,-0.0031193,-0.0027779
1.4625000,1.4625000,1.4625000,-0.0017965,-0.0008932,-0.1250372,-0.0017965,-0.0030957,-0.0027413
1.4650000,1.4650000,1.4650000,-0.0017779,-0.0008887,-0.1243909,-0.0017779,-0.0030723,-0.0027052
1.4675000,1.4675000,1.4675000,-0.0017596,-0.0008843,-0.1237490,-0.0017596,-0.0030492,-0.0026696
1.4700000,1.4700000,1.4700000,-0.0017416,-0.0008799,-0.1231116,-0.0017416,-0.0030263,-0.0026344
1.4725000,1.4725000,1.4725000,-0.0017237,-0.0008755,-0.1224785,-0.0017237,-0.0030036,-0.0025997
1.4750000,1.4750000,1.4750000,-0.0017060,-0.0008711,-0.1218498,-0.0017060,-0.0029812,-0.0025655
1.4775000,1.4775000,1.4775000,-0.0016886,-0.0008667,-0.1212254,-0.0016886,-0.0029589,-0.0025317
1.4800000,1.4800000,1.4800000,-0.0016714,-0.0008624,-0.1206053,-0.0016714,-0.0029370,-0.0024983
1.4825000,1.4825000,1.4825000,-0.0016543,-0.0008582,-0.1199894,-0.0016543,-0.0029152,-0.0024654
1.4850000,1.4850000,1.4850000,-0.0016375,-0.0008539,-0.1193776,-0.0016375,-0.0028936,-0.0024329
1.4875000,1.4875000,1.4875000,-0.0016209,-0.0008497,-0.1187701,-0.0016209,-0.0028723,-0.0024008
1.4900000,1.4900000,1.4900000,-0.0016044,-0.0008455,-0.1181667,-0.0016044,-0.0028511,-0.0023691
1.4925000,1.4925000,1.4925000,-0.0015882,-0.0008413,-0.1175674,-0.0015882,-0.0028302,-0.0023379
1.4950000,1.4950000,1.4950000,-0.0015722,-0.0008372,-0.1169721,-0.0015722,-0.0028095,-0.0023070
1.4975000,1.4975000,1.4975000,-0.0015563,-0.0008330,-0.1163809,-0.0015563,-0.0027890,-0.0022766
1.5000000,1.5000000,1.5000000,-0.0015406,-0.0008289,-0.1157936,-0.0015406,-0.0027687,-0.0022465
1.5025000,1.5025000,1.5025000,-0.0015252,-0.0008249,-0.1152103,-0.0015252,-0.0027486,-0.0022169
1.5050000,1.5050000,1.5050000,-0.0015099,-0.0008208,-0.1146309,-0.0015099,-0.0027287,-0.0021876
1.5075000,1.5075000,1.5075000,-0.0014947,-0.0008168,-0.1140554,-0.0014947,-0.0027090,-0.0021587
1.5100000,1.5100000,1.5100000,-0.0014798,-0.0008129,-0.1134838,-0.0014798,-0.0026894,-0.0021301
1.5125000,1.5125000,1.5125000,-0.0014650,-0.0008089,-0.1129160,-0.0014650,-0.0026701,-0.0021020
1.5150000,1.5150000,1.5150000,-0.0014504,-0.0008050,-0.1123520,-0.0014504,-0.0026509,-0.0020742
1.5175000,1.5175000,1.5175000,-0.0014360,-0.0008011,-0.1117917,-0.0014360,-0.0026320,-0.0020467
1.5200000,1.5200000,1.5200000,-0.0014217,-0.0007972,-0.1112352,-0.0014217,-0.0026132,-0.0020196
1.5225000,1.5225000,1.5225000,-0.0014076,-0.0007933,-0.1106824,-0.0014076,-0.0025946,-0.0019929
1.5250000,1.5250000,1.5250000,-0.0013937,-0.0007895,-0.1101332,-0.0013937,-0.0025762,-0.0019665
1.5275000,1.5275000,1.5275000,-0.0013799,-0.0007857,-0.1095877,-0.0013799,-0.0025579,-0.0019404
1.5300000,1.5300000,1.5300000,-0.0013663,-0.0007819,-0.1090458,-0.0013663,-0.0025399,-0.0019147
1.5325000,1.5325000,1.5325000,-0.0013528,-0.0007781,-0.1085074,-0.0013528,-0.0025220,-0.0018892
1.5350000,1.5350000,1.5350000,-0.0013395,-0.0007744,-0.1079726,-0.0013395,-0.0025042,-0.0018642
1.5375000,1.5375000,1.5375000,-0.0013264,-0.0007707,-0.1074414,-0.0013264,-0.0024867,-0.0018394
1.5400000,1.5400000,1.5400000,-0.0013134,-0.0007670,-0.1069136,-0.0013134,-0.0024693,-0.0018149
1.5425000,1.5425000,1.5425000,-0.0013005,-0.0007633,-0.1063892,-0.0013005,-0.0024521,-0.0017908
1.5450000,1.5450000,1.5450000,-0.0012878,-0.0007597,-0.1058684,-0.0012878,-0.0024350,-0.0017670
1.5475000,1.5475000,1.5475000,-0.0012753,-0.0007561,-0.1053509,-0.0012753,-0.0024181,-0.0017434
1.5500000,1.5500000,1.5500000,-0.0012628,-0.0007525,-0.1048367,-0.0012628,-0.0024014,-0.0017202
1.5525000,1.5525000,1.5525000,-0.0012506,-0.0007489,-0.1043260,-0.0012506,-0.0023848,-0.0016972
1.5550000,1.5550000,1.5550000,-0.0012384,-0.0007453,-0.1038185,-0.0012384,-0.0023683,-0.0016746
1.5575000,1.5575000,1.5575000,-0.0012264,-0.0007418,-0.1033144,-0.0012264,-0.0023521,-0.0016522
1.5600000,1.5600000,1.5600000,-0.0012146,-0.0007383,-0.1028135,-0.0012146,-0.0023359,-0.0016301
1.5625000,1.5625000,1.5625000,-0.0012028,-0.0007348,-0.1023158,-0.0012028,-0.0023200,-0.0016083
1.5650000,1.5650000,1.5650000,-0.0011912,-0.0007314,-0.1018214,-0.0011912,-0.0023041,-0.0015868
1.5675000,1.5675000,1.5675000,-0.0011798,-0.0007279,-0.1013302,-0.0011798,-0.0022884,-0.0015655
1.5700000,1.5700000,1.5700000,-0.0011684,-0.0007245,-0.1008421,-0.0011684,-0.0022729,-0.0015445
1.5725000,1.5725000,1.5725000,-0.0011572,-0.0007211,-0.1003572,-0.0011572,-0.0022575,-0.0015238
1.5750000,1.5750000,1.5750000,-0.0011461,-0.0007177,-0.0998753,-0.0011461,-0.0022423,-0.0015033
1.5775000,1.5775000,1.5775000,-0.0011352,-0.0007144,-0.0993966,-0.0011352,-0.0022271,-0.0014831
1.5800000,1.5800000,1.5800000,-0.0011243,-0.0007110,-0.0989209,-0.0011243,-0.0022122,-0.0014631
1.5825000,1.5825000,1.5825000,-0.0011136,-0.0007077,-0.0984483,-0.0011136,-0.0021973,-0.0014434
1.5850000,1.5850000,1.5850000,-0.0011030,-0.0007044,-0.0979786,-0.0011030,-0.0021826,-0.0014240
1.5875000,1.5875000,1.5875000,-0.0010925,-0.0007012,-0.0975120,-0.0010925,-0.0021681,-0.0014047
1.5900000,1.5900000,1.5900000,-0.0010822,-0.0006979,-0.0970483,-0.0010822,-0.0021536,-0.0013858
1.5925000,1.5925000,1.5925000,-0.0010719,-0.0006947,-0.0965876,-0.0010719,-0.0021393,-0.0013670
1.5950000,1.5950000,1.5950000,-0.0010618,-0.0006915,-0.0961298,-0.0010618,-0.0021251,-0.0013485
1.5975000,1.5975000,1.5975000,-0.0010517,-0.0006883,-0.0956749,-0.0010517,-0.0021111,-0.0013302
