# r[nm],d[nm],daligned[nm],U(d)[kj/mol],V(d)[e/nm],Uslab(d)[kJ/mol],UC(d)[kJ/mol],UK(d)[kJ/mol],UCl(d)[kJ/mol]
0.1750000,0.1750000,0.1750000,1851.0393196,-0.0549451,401.4351814,1851.0393196,1168.8215678,inf
0.1775000,0.1775000,0.1775000,1631.2139972,-0.0557015,348.2253812,1631.2139972,1028.9589158,inf
0.1800000,0.1800000,0.1800000,1438.6924387,-0.0578574,302.2239183,1438.6924387,906.5204581,inf
0.1825000,0.1825000,0.1825000,1269.9051696,-0.0598249,262.3927617,1269.9051696,799.2327273,inf
0.1850000,0.1850000,0.1850000,1121.7852655,-0.0616047,227.8537162,1121.7852655,705.1316367,inf
0.1875000,0.1875000,0.1875000,991.6798211,-0.0631930,197.8621269,991.6798211,622.5190225,inf
0.1900000,0.1900000,0.1900000,877.2915473,-0.0645829,171.7852072,877.2915473,549.9256382,inf
0.1925000,0.1925000,0.1925000,776.6291503,-0.0657680,149.0841178,776.6291503,486.0794465,inf
0.1950000,0.1950000,0.1950000,687.9651201,-0.0667461,129.2991024,687.9651201,429.8782968,inf
0.1975000,0.1975000,0.1975000,609.7996930,-0.0675227,112.0371242,609.7996930,380.3663178,inf
0.2000000,0.2000000,0.2000000,540.8299245,-0.0681124,96.9615550,540.8299245,336.7135367,inf
0.2025000,0.2025000,0.2025000,479.9230064,-0.0685378,83.7835565,479.9230064,298.1983505,inf
0.2050000,0.2050000,0.2050000,426.0931683,-0.0688262,72.2548583,426.0931683,264.1925103,1813.7311035
0.2075000,0.2075000,0.2075000,378.4816800,-0.0690060,62.1616949,378.4816800,234.1483008,1616.5581695
0.2100000,0.2100000,0.2100000,336.3395759,-0.0691034,53.3197026,336.3395759,207.5876036,1441.7648244
0.2125000,0.2125000,0.2125000,299.0127851,-0.0691404,45.5696181,299.0127851,184.0925603,1286.6836262
0.2150000,0.2150000,0.2150000,265.9293689,-0.0691338,38.7736442,265.9293689,163.2975839,1148.9803204
0.2175000,0.2175000,0.2175000,236.5885844,-0.0690956,32.8123738,236.5885844,144.8825033,1026.6102558
0.2200000,0.2200000,0.2200000,210.5515111,-0.0690334,27.5821812,210.5515111,128.5666643,917.7808757
0.2225000,0.2225000,0.2225000,187.4330044,-0.0689518,22.9930067,187.4330044,114.1038397,820.9193828
0.2250000,0.2250000,0.2250000,166.8947717,-0.0688531,18.9664700,166.8947717,101.2778279,734.6447845
0.2275000,0.2275000,0.2275000,148.6393997,-0.0687381,15.4342629,148.6393997,89.8986403,657.7436391
0.2300000,0.2300000,0.2300000,132.4051882,-0.0686068,12.3367760,132.4051882,79.7991929,589.1489386
0.2325000,0.2325000,0.2325000,117.9616727,-0.0684586,9.6219244,117.9616727,70.8324327,527.9216797
0.2350000,0.2350000,0.2350000,105.1057350,-0.0682930,7.2441407,105.1057350,62.8688390,473.2347669
0.2375000,0.2375000,0.2375000,93.6582215,-0.0681091,5.1635121,93.6582215,55.7942486,424.3589645
0.2400000,0.2400000,0.2400000,83.4609963,-0.0679066,3.3450371,83.4609963,49.5079605,380.6506546
0.2425000,0.2425000,0.2425000,74.3743728,-0.0676849,1.7579858,74.3743728,43.9210849,341.5411883
0.2450000,0.2450000,0.2450000,66.2748719,-0.0674441,0.3753460,66.2748719,38.9551014,306.5276322
0.2475000,0.2475000,0.2475000,59.0532626,-0.0671840,-0.8266585,59.0532626,34.5406010,275.1647298
0.2500000,0.2500000,0.2500000,52.6128504,-0.0669050,-1.8689921,52.6128504,30.6161861,247.0579130
0.2525000,0.2525000,0.2525000,46.8679782,-0.0666072,-2.7701834,46.8679782,27.1275089,221.8572198
0.2550000,0.2550000,0.2550000,41.7427149,-0.0662912,-3.5466619,41.7427149,24.0264304,199.2519905
0.2575000,0.2575000,0.2575000,37.1697052,-0.0659576,-4.2130568,37.1697052,21.2702825,178.9662343
0.2600000,0.2600000,0.2600000,33.0891617,-0.0656070,-4.7824569,33.0891617,18.8212224,160.7545754
0.2625000,0.2625000,0.2625000,29.4479794,-0.0652402,-5.2666278,29.4479794,16.6456653,144.3986982
0.2650000,0.2650000,0.2650000,26.1989592,-0.0648579,-5.6761839,26.1989592,14.7137853,129.7042277
0.2675000,0.2675000,0.2675000,23.3001243,-0.0644609,-6.0207179,23.3001243,12.9990739,116.4979863
0.2700000,0.2700000,0.2700000,20.7141199,-0.0640501,-6.3088946,20.7141199,11.4779465,104.6255802
0.2725000,0.2725000,0.2725000,18.4076833,-0.0636262,-6.5485199,18.4076833,10.1293841,93.9492723
0.2750000,0.2750000,0.2750000,16.3511779,-0.0631902,-6.7465932,16.3511779,8.9346045,84.3461074
0.2775000,0.2775000,0.2775000,14.5181791,-0.0627427,-6.9093479,14.5181791,7.8767544,75.7062569
0.2800000,0.2800000,0.2800000,12.8851057,-0.0622841,-7.0422787,12.8851057,6.9406263,67.9315576
0.2825000,0.2825000,0.2825000,11.4308860,-0.0618148,-7.1501573,11.4308860,6.1124078,60.9342190
0.2850000,0.2850000,0.2850000,10.1366511,-0.0613340,-7.2370386,10.1366511,5.3794792,54.6356812
0.2875000,0.2875000,0.2875000,8.9854500,-0.0608405,-7.3062680,8.9854500,4.7302713,48.9656026
0.2900000,0.2900000,0.2900000,7.9619848,-0.0603320,-7.3605046,7.9619848,4.1541914,43.8609648
0.2925000,0.2925000,0.2925000,7.0523717,-0.0598056,-7.4017693,7.0523717,3.6416142,39.2652775
0.2950000,0.2950000,0.2950000,6.2439384,-0.0592582,-7.4315230,6.2439384,3.1839174,35.1278751
0.2975000,0.2975000,0.2975000,5.5250677,-0.0586873,-7.4507696,5.5250677,2.7735356,31.4032907
0.3000000,0.3000000,0.3000000,4.8850989,-0.0580919,-7.4601733,4.8850989,2.4040004,28.0507016
0.3025000,0.3025000,0.3025000,4.3142837,-0.0574728,-7.4601760,4.3142837,2.0699396,25.0334356
0.3050000,0.3050000,0.3050000,3.8037914,-0.0568338,-7.4511053,3.8037914,1.7670227,22.3185320
0.3075000,0.3075000,0.3075000,3.3457415,-0.0561806,-7.4332650,3.3457415,1.4918508,19.8763515
0.3100000,0.3100000,0.3100000,2.9332415,-0.0555207,-7.4070077,2.9332415,1.2418064,17.6802270
0.3125000,0.3125000,0.3125000,2.5604049,-0.0548627,-7.3727852,2.5604049,1.0148833,15.7061522
0.3150000,0.3150000,0.3150000,2.2223308,-0.0542146,-7.3311759,2.2223308,0.8095174,13.9325006
0.3175000,0.3175000,0.3175000,1.9150395,-0.0535833,-7.2828842,1.9150395,0.6244369,12.3397696
0.3200000,0.3200000,0.3200000,1.6353653,-0.0529735,-7.2287158,1.6353653,0.4585387,10.9103457
0.3225000,0.3225000,0.3225000,1.3808213,-0.0523882,-7.1695369,1.3808213,0.3107968,9.6282856
0.3250000,0.3250000,0.3250000,1.1494516,-0.0518278,-7.1062312,1.1494516,0.1801989,8.4791134
0.3275000,0.3275000,0.3275000,0.9396882,-0.0512912,-7.0396681,0.9396882,0.0657076,7.4496347
0.3300000,0.3300000,0.3300000,0.7502237,-0.0507756,-6.9706859,0.7502237,-0.0337613,6.5277714
0.3325000,0.3325000,0.3325000,0.5799085,-0.0502779,-6.9000878,0.5799085,-0.1193451,5.7024251
0.3350000,0.3350000,0.3350000,0.4276716,-0.0497944,-6.8286441,0.4276716,-0.1922333,4.9633724
0.3375000,0.3375000,0.3375000,0.2924662,-0.0493221,-6.7570927,0.2924662,-0.2536581,4.3011963
0.3400000,0.3400000,0.3400000,0.1732342,-0.0488584,-6.6861327,0.1732342,-0.3048803,3.7072524
0.3425000,0.3425000,0.3425000,0.0688868,-0.0484021,-6.6164063,0.0688868,-0.3471706,3.1736628
0.3450000,0.3450000,0.3450000,-0.0217038,-0.0479527,-6.5484692,-0.0217038,-0.3817864,2.6933284
0.3475000,0.3475000,0.3475000,-0.0997041,-0.0475100,-6.4827558,-0.0997041,-0.4099490,2.2599440
0.3500000,0.3500000,0.3500000,-0.1663120,-0.0470736,-6.4195497,-0.1663120,-0.4328204,1.8680051
0.3525000,0.3525000,0.3525000,-0.2227454,-0.0466409,-6.3589738,-0.2227454,-0.4514841,1.5127936
0.3550000,0.3550000,0.3550000,-0.2702253,-0.0462074,-6.3010014,-0.2702253,-0.4669305,1.1903375
0.3575000,0.3575000,0.3575000,-0.3099574,-0.0457653,-6.2454869,-0.3099574,-0.4800476,0.8973447
0.3600000,0.3600000,0.3600000,-0.3431116,-0.0453043,-6.1922003,-0.3431116,-0.4916153,0.6311151
0.3625000,0.3625000,0.3625000,-0.3708028,-0.0448130,-6.1408553,-0.3708028,-0.5023031,0.3894405
0.3650000,0.3650000,0.3650000,-0.3940735,-0.0442802,-6.0911280,-0.3940735,-0.5126702,0.1705009
0.3675000,0.3675000,0.3675000,-0.4138802,-0.0436977,-6.0426705,-0.4138802,-0.5231671,-0.0272330
0.3700000,0.3700000,0.3700000,-0.4310825,-0.0430619,-5.9951298,-0.4310825,-0.5341384,-0.2050875
0.3725000,0.3725000,0.3725000,-0.4464362,-0.0423763,-5.9481797,-0.4464362,-0.5458271,-0.3642579
0.3750000,0.3750000,0.3750000,-0.4605889,-0.0416518,-5.9015627,-0.4605889,-0.5583792,-0.5058649
0.3775000,0.3775000,0.3775000,-0.4740784,-0.0409072,-5.8551339,-0.4740784,-0.5718494,-0.6309969
0.3800000,0.3800000,0.3800000,-0.4873334,-0.0401675,-5.8088859,-0.4873334,-0.5862068,-0.7407374
0.3825000,0.3825000,0.3825000,-0.5006775,-0.0394620,-5.7629441,-0.5006775,-0.6013422,-0.8361825
0.3850000,0.3850000,0.3850000,-0.5143337,-0.0388206,-5.7175265,-0.5143337,-0.6170773,-0.9184478
0.3875000,0.3875000,0.3875000,-0.5284318,-0.0382707,-5.6728833,-0.5284318,-0.6331761,-0.9886684
0.3900000,0.3900000,0.3900000,-0.5430165,-0.0378345,-5.6292352,-0.5430165,-0.6493590,-1.0479919
0.3925000,0.3925000,0.3925000,-0.5580555,-0.0375265,-5.5867336,-0.5580555,-0.6653189,-1.0975679
0.3950000,0.3950000,0.3950000,-0.5734497,-0.0373531,-5.5454471,-0.5734497,-0.6807390,-1.1385343
0.3975000,0.3975000,0.3975000,-0.5890430,-0.0373125,-5.5053693,-0.5890430,-0.6953108,-1.1720025
0.4000000,0.4000000,0.4000000,-0.6046349,-0.0373958,-5.4664321,-0.6046349,-0.7087511,-1.1990429
0.4025000,0.4025000,0.4025000,-0.6199939,-0.0375877,-5.4285147,-0.6199939,-0.7208171,-1.2206713
0.4050000,0.4050000,0.4050000,-0.6348731,-0.0378677,-5.3914453,-0.6348731,-0.7313182,-1.2378377
0.4075000,0.4075000,0.4075000,-0.6490269,-0.0382107,-5.3549999,-0.6490269,-0.7401268,-1.2514172
0.4100000,0.4100000,0.4100000,-0.6622267,-0.0385880,-5.3189062,-0.6622267,-0.7471871,-1.2622017
0.4125000,0.4125000,0.4125000,-0.6742752,-0.0389680,-5.2828574,-0.6742752,-0.7525203,-1.2708942
0.4150000,0.4150000,0.4150000,-0.6850180,-0.0393172,-5.2465329,-0.6850180,-0.7562273,-1.2781041
0.4175000,0.4175000,0.4175000,-0.6943526,-0.0396017,-5.2096215,-0.6943526,-0.7584850,-1.2843438
0.4200000,0.4200000,0.4200000,-0.7022354,-0.0397893,-5.1718402,-0.7022354,-0.7595363,-1.2900278
0.4225000,0.4225000,0.4225000,-0.7086860,-0.0398503,-5.1329464,-0.7086860,-0.7596740,-1.2954740
0.4250000,0.4250000,0.4250000,-0.7137896,-0.0397601,-5.0927445,-0.7137896,-0.7592199,-1.3009064
0.4275000,0.4275000,0.4275000,-0.7176935,-0.0395001,-5.0510874,-0.7176935,-0.7585014,-1.3064607
0.4300000,0.4300000,0.4300000,-0.7206006,-0.0390592,-5.0078757,-0.7206006,-0.7578273,-1.3121917
0.4325000,0.4325000,0.4325000,-0.7227562,-0.0384350,-4.9630549,-0.7227562,-0.7574659,-1.3180815
0.4350000,0.4350000,0.4350000,-0.7244318,-0.0376335,-4.9166128,-0.7244318,-0.7576273,-1.3240510
0.4375000,0.4375000,0.4375000,-0.7259053,-0.0366687,-4.8685745,-0.7259053,-0.7584525,-1.3299723
0.4400000,0.4400000,0.4400000,-0.7274415,-0.0355617,-4.8189977,-0.7274415,-0.7600110,-1.3356838
0.4425000,0.4425000,0.4425000,-0.7292723,-0.0343382,-4.7679677,-0.7292723,-0.7623072,-1.3410058
0.4450000,0.4450000,0.4450000,-0.7315814,-0.0330272,-4.7155919,-0.7315814,-0.7652941,-1.3457575
0.4475000,0.4475000,0.4475000,-0.7344941,-0.0316585,-4.6619941,-0.7344941,-0.7688901,-1.3497717
0.4500000,0.4500000,0.4500000,-0.7380737,-0.0302609,-4.6073099,-0.7380737,-0.7729958,-1.3529085
0.4525000,0.4525000,0.4525000,-0.7423273,-0.0288601,-4.5516818,-0.7423273,-0.7775061,-1.3550658
0.4550000,0.4550000,0.4550000,-0.7472166,-0.0274774,-4.4952555,-0.7472166,-0.7823166,-1.3561872
0.4575000,0.4575000,0.4575000,-0.7526723,-0.0261285,-4.4381765,-0.7526723,-0.7873244,-1.3562663
0.4600000,0.4600000,0.4600000,-0.7586077,-0.0248238,-4.3805870,-0.7586077,-0.7924257,-1.3553485
0.4625000,0.4625000,0.4625000,-0.7649294,-0.0235684,-4.3226245,-0.7649294,-0.7975111,-1.3535292
0.4650000,0.4650000,0.4650000,-0.7715421,-0.0223636,-4.2644193,-0.7715421,-0.8024627,-1.3509488
0.4675000,0.4675000,0.4675000,-0.7783494,-0.0212084,-4.2060943,-0.7783494,-0.8071539,-1.3477845
0.4700000,0.4700000,0.4700000,-0.7852515,-0.0201010,-4.1477634,-0.7852515,-0.8114528,-1.3442385
0.4725000,0.4725000,0.4725000,-0.7921411,-0.0190395,-4.0895316,-0.7921411,-0.8152271,-1.3405242
0.4750000,0.4750000,0.4750000,-0.7989015,-0.0180233,-4.0314947,-0.7989015,-0.8183514,-1.3368502
0.4775000,0.4775000,0.4775000,-0.8054063,-0.0170527,-3.9737397,-0.8054063,-0.8207124,-1.3334055
0.4800000,0.4800000,0.4800000,-0.8115226,-0.0161290,-3.9163444,-0.8115226,-0.8222154,-1.3303463
0.4825000,0.4825000,0.4825000,-0.8171156,-0.0152541,-3.8593782,-0.8171156,-0.8227885,-1.3277878
0.4850000,0.4850000,0.4850000,-0.8220551,-0.0144299,-3.8029026,-0.8220551,-0.8223860,-1.3258015
0.4875000,0.4875000,0.4875000,-0.8262218,-0.0136580,-3.7469714,-0.8262218,-0.8209898,-1.3244173
0.4900000,0.4900000,0.4900000,-0.8295129,-0.0129396,-3.6916316,-0.8295129,-0.8186071,-1.3236288
0.4925000,0.4925000,0.4925000,-0.8318478,-0.0122745,-3.6369234,-0.8318478,-0.8152650,-1.3234011
0.4950000,0.4950000,0.4950000,-0.8331718,-0.0116618,-3.5828812,-0.8331718,-0.8110040,-1.3236777
0.4975000,0.4975000,0.4975000,-0.8334567,-0.0110992,-3.5295340,-0.8334567,-0.8058709,-1.3243856
0.5000000,0.5000000,0.5000000,-0.8326997,-0.0105836,-3.4769058,-0.8326997,-0.7999130,-1.3254388
0.5025000,0.5025000,0.5025000,-0.8309180,-0.0101112,-3.4250162,-0.8309180,-0.7931756,-1.3267395
0.5050000,0.5050000,0.5050000,-0.8281429,-0.0096783,-3.3738807,-0.8281429,-0.7857005,-1.3281786
0.5075000,0.5075000,0.5075000,-0.8244135,-0.0092810,-3.3235113,-0.8244135,-0.7775274,-1.3296354
0.5100000,0.5100000,0.5100000,-0.8197719,-0.0089160,-3.2739166,-0.8197719,-0.7686949,-1.3309794
0.5125000,0.5125000,0.5125000,-0.8142599,-0.0085805,-3.2251025,-0.8142599,-0.7592427,-1.3320725
0.5150000,0.5150000,0.5150000,-0.8079182,-0.0082722,-3.1770724,-0.8079182,-0.7492126,-1.3327730
0.5175000,0.5175000,0.5175000,-0.8007867,-0.0079891,-3.1298272,-0.8007867,-0.7386496,-1.3329408
0.5200000,0.5200000,0.5200000,-0.7929055,-0.0077296,-3.0833662,-0.7929055,-0.7276019,-1.3324429
0.5225000,0.5225000,0.5225000,-0.7843160,-0.0074924,-3.0376866,-0.7843160,-0.7161203,-1.3311601
0.5250000,0.5250000,0.5250000,-0.7750627,-0.0072761,-2.9927844,-0.7750627,-0.7042577,-1.3289914
0.5275000,0.5275000,0.5275000,-0.7651926,-0.0070795,-2.9486540,-0.7651926,-0.6920681,-1.3258588
0.5300000,0.5300000,0.5300000,-0.7547564,-0.0069013,-2.9052889,-0.7547564,-0.6796053,-1.3217075
0.5325000,0.5325000,0.5325000,-0.7438072,-0.0067401,-2.8626814,-0.7438072,-0.6669223,-1.3165061
0.5350000,0.5350000,0.5350000,-0.7324004,-0.0065946,-2.8208232,-0.7324004,-0.6540703,-1.3102430
0.5375000,0.5375000,0.5375000,-0.7205924,-0.0064635,-2.7797051,-0.7205924,-0.6410981,-1.3029229
0.5400000,0.5400000,0.5400000,-0.7084398,-0.0063454,-2.7393174,-0.7084398,-0.6280513,-1.2945630
0.5425000,0.5425000,0.5425000,-0.6959984,-0.0062390,-2.6996499,-0.6959984,-0.6149724,-1.2851888
0.5450000,0.5450000,0.5450000,-0.6833224,-0.0061430,-2.6606919,-0.6833224,-0.6019001,-1.2748324
0.5475000,0.5475000,0.5475000,-0.6704639,-0.0060564,-2.6224325,-0.6704639,-0.5888698,-1.2635300
0.5500000,0.5500000,0.5500000,-0.6574720,-0.0059778,-2.5848604,-0.6574720,-0.5759130,-1.2513221
0.5525000,0.5525000,0.5525000,-0.6443926,-0.0059064,-2.5479643,-0.6443926,-0.5630578,-1.2382525
0.5550000,0.5550000,0.5550000,-0.6312683,-0.0058412,-2.5117325,-0.6312683,-0.5503289,-1.2243687
0.5575000,0.5575000,0.5575000,-0.6181378,-0.0057814,-2.4761535,-0.6181378,-0.5377478,-1.2097217
0.5600000,0.5600000,0.5600000,-0.6050365,-0.0057262,-2.4412154,-0.6050365,-0.5253331,-1.1943662
0.5625000,0.5625000,0.5625000,-0.5919961,-0.0056749,-2.4069067,-0.5919961,-0.5131006,-1.1783596
0.5650000,0.5650000,0.5650000,-0.5790447,-0.0056269,-2.3732156,-0.5790447,-0.5010637,-1.1617623
0.5675000,0.5675000,0.5675000,-0.5662075,-0.0055817,-2.3401304,-0.5662075,-0.4892332,-1.1446362
0.5700000,0.5700000,0.5700000,-0.5535061,-0.0055389,-2.3076395,-0.5535061,-0.4776182,-1.1270446
0.5725000,0.5725000,0.5725000,-0.5409597,-0.0054980,-2.2757315,-0.5409597,-0.4662258,-1.1090506
0.5750000,0.5750000,0.5750000,-0.5285844,-0.0054588,-2.2443950,-0.5285844,-0.4550614,-1.0907169
0.5775000,0.5775000,0.5775000,-0.5163941,-0.0054208,-2.2136186,-0.5163941,-0.4441291,-1.0721048
0.5800000,0.5800000,0.5800000,-0.5044004,-0.0053839,-2.1833914,-0.5044004,-0.4334314,-1.0532734
0.5825000,0.5825000,0.5825000,-0.4926129,-0.0053478,-2.1537022,-0.4926129,-0.4229701,-1.0342793
0.5850000,0.5850000,0.5850000,-0.4810394,-0.0053124,-2.1245403,-0.4810394,-0.4127456,-1.0151761
0.5875000,0.5875000,0.5875000,-0.4696859,-0.0052775,-2.0958950,-0.4696859,-0.4027576,-0.9960138
0.5900000,0.5900000,0.5900000,-0.4585572,-0.0052429,-2.0677559,-0.4585572,-0.3930052,-0.9768392
0.5925000,0.5925000,0.5925000,-0.4476565,-0.0052086,-2.0401126,-0.4476565,-0.3834865,-0.9576951
0.5950000,0.5950000,0.5950000,-0.4369862,-0.0051745,-2.0129550,-0.4369862,-0.3741994,-0.9386209
0.5975000,0.5975000,0.5975000,-0.4265474,-0.0051406,-1.9862731,-0.4265474,-0.3651411,-0.9196520
0.6000000,0.6000000,0.6000000,-0.4163404,-0.0051066,-1.9600573,-0.4163404,-0.3563085,-0.9008207
0.6025000,0.6025000,0.6025000,-0.4063649,-0.0050727,-1.9342979,-0.4063649,-0.3476981,-0.8821555
0.6050000,0.6050000,0.6050000,-0.3966197,-0.0050388,-1.9089856,-0.3966197,-0.3393063,-0.8636817
0.6075000,0.6075000,0.6075000,-0.3871031,-0.0050048,-1.8841111,-0.3871031,-0.3311291,-0.8454217
0.6100000,0.6100000,0.6100000,-0.3778130,-0.0049708,-1.8596654,-0.3778130,-0.3231623,-0.8273949
0.6125000,0.6125000,0.6125000,-0.3687466,-0.0049366,-1.8356398,-0.3687466,-0.3154018,-0.8096180
0.6150000,0.6150000,0.6150000,-0.3599011,-0.0049024,-1.8120256,-0.3599011,-0.3078430,-0.7921053
0.6175000,0.6175000,0.6175000,-0.3512731,-0.0048682,-1.7888143,-0.3512731,-0.3004817,-0.7748689
0.6200000,0.6200000,0.6200000,-0.3428591,-0.0048338,-1.7659976,-0.3428591,-0.2933132,-0.7579187
0.6225000,0.6225000,0.6225000,-0.3346554,-0.0047993,-1.7435675,-0.3346554,-0.2863332,-0.7412628
0.6250000,0.6250000,0.6250000,-0.3266581,-0.0047648,-1.7215161,-0.3266581,-0.2795370,-0.7249075
0.6275000,0.6275000,0.6275000,-0.3188631,-0.0047302,-1.6998355,-0.3188631,-0.2729201,-0.7088578
0.6300000,0.6300000,0.6300000,-0.3112663,-0.0046956,-1.6785182,-0.3112663,-0.2664781,-0.6931170
0.6325000,0.6325000,0.6325000,-0.3038635,-0.0046609,-1.6575568,-0.3038635,-0.2602065,-0.6776875
0.6350000,0.6350000,0.6350000,-0.2966505,-0.0046262,-1.6369441,-0.2966505,-0.2541009,-0.6625704
0.6375000,0.6375000,0.6375000,-0.2896228,-0.0045914,-1.6166729,-0.2896228,-0.2481570,-0.6477659
0.6400000,0.6400000,0.6400000,-0.2827764,-0.0045567,-1.5967364,-0.2827764,-0.2423705,-0.6332733
0.6425000,0.6425000,0.6425000,-0.2761067,-0.0045219,-1.5771278,-0.2761067,-0.2367372,-0.6190912
0.6450000,0.6450000,0.6450000,-0.2696097,-0.0044872,-1.5578404,-0.2696097,-0.2312529,-0.6052175
0.6475000,0.6475000,0.6475000,-0.2632810,-0.0044525,-1.5388678,-0.2632810,-0.2259136,-0.5916496
0.6500000,0.6500000,0.6500000,-0.2571164,-0.0044179,-1.5202037,-0.2571164,-0.2207153,-0.5783842
0.6525000,0.6525000,0.6525000,-0.2511118,-0.0043833,-1.5018420,-0.2511118,-0.2156542,-0.5654178
0.6550000,0.6550000,0.6550000,-0.2452631,-0.0043488,-1.4837764,-0.2452631,-0.2107264,-0.5527464
0.6575000,0.6575000,0.6575000,-0.2395663,-0.0043144,-1.4660013,-0.2395663,-0.2059282,-0.5403657
0.6600000,0.6600000,0.6600000,-0.2340173,-0.0042800,-1.4485107,-0.2340173,-0.2012561,-0.5282713
0.6625000,0.6625000,0.6625000,-0.2286124,-0.0042458,-1.4312992,-0.2286124,-0.1967064,-0.5164584
0.6650000,0.6650000,0.6650000,-0.2233476,-0.0042117,-1.4143610,-0.2233476,-0.1922758,-0.5049220
0.6675000,0.6675000,0.6675000,-0.2182192,-0.0041777,-1.3976910,-0.2182192,-0.1879609,-0.4936571
0.6700000,0.6700000,0.6700000,-0.2132236,-0.0041438,-1.3812838,-0.2132236,-0.1837583,-0.4826585
0.6725000,0.6725000,0.6725000,-0.2083571,-0.0041101,-1.3651343,-0.2083571,-0.1796650,-0.4719209
0.6750000,0.6750000,0.6750000,-0.2036163,-0.0040766,-1.3492375,-0.2036163,-0.1756779,-0.4614391
0.6775000,0.6775000,0.6775000,-0.1989978,-0.0040432,-1.3335884,-0.1989978,-0.1717939,-0.4512078
0.6800000,0.6800000,0.6800000,-0.1944982,-0.0040100,-1.3181823,-0.1944982,-0.1680101,-0.4412214
0.6825000,0.6825000,0.6825000,-0.1901142,-0.0039769,-1.3030145,-0.1901142,-0.1643237,-0.4314748
0.6850000,0.6850000,0.6850000,-0.1858427,-0.0039440,-1.2880803,-0.1858427,-0.1607319,-0.4219626
0.6875000,0.6875000,0.6875000,-0.1816806,-0.0039114,-1.2733754,-0.1816806,-0.1572320,-0.4126794
0.6900000,0.6900000,0.6900000,-0.1776248,-0.0038789,-1.2588953,-0.1776248,-0.1538214,-0.4036200
0.6925000,0.6925000,0.6925000,-0.1736724,-0.0038466,-1.2446357,-0.1736724,-0.1504977,-0.3947792
0.6950000,0.6950000,0.6950000,-0.1698207,-0.0038145,-1.2305925,-0.1698207,-0.1472583,-0.3861518
0.6975000,0.6975000,0.6975000,-0.1660667,-0.0037827,-1.2167616,-0.1660667,-0.1441008,-0.3777328
0.7000000,0.7000000,0.7000000,-0.1624078,-0.0037510,-1.2031389,-0.1624078,-0.1410230,-0.3695172
0.7025000,0.7025000,0.7025000,-0.1588413,-0.0037196,-1.1897206,-0.1588413,-0.1380226,-0.3614999
0.7050000,0.7050000,0.7050000,-0.1553648,-0.0036884,-1.1765028,-0.1553648,-0.1350974,-0.3536762
0.7075000,0.7075000,0.7075000,-0.1519757,-0.0036574,-1.1634818,-0.1519757,-0.1322453,-0.3460413
0.7100000,0.7100000,0.7100000,-0.1486715,-0.0036266,-1.1506540,-0.1486715,-0.1294642,-0.3385906
0.7125000,0.7125000,0.7125000,-0.1454500,-0.0035961,-1.1380156,-0.1454500,-0.1267523,-0.3313194
0.7150000,0.7150000,0.7150000,-0.1423089,-0.0035658,-1.1255634,-0.1423089,-0.1241074,-0.3242232
0.7175000,0.7175000,0.7175000,-0.1392460,-0.0035358,-1.1132937,-0.1392460,-0.1215278,-0.3172977
0.7200000,0.7200000,0.7200000,-0.1362590,-0.0035060,-1.1012034,-0.1362590,-0.1190117,-0.3105385
0.7225000,0.7225000,0.7225000,-0.1333459,-0.0034764,-1.0892890,-0.1333459,-0.1165572,-0.3039415
0.7250000,0.7250000,0.7250000,-0.1305047,-0.0034471,-1.0775475,-0.1305047,-0.1141627,-0.2975025
0.7275000,0.7275000,0.7275000,-0.1277334,-0.0034180,-1.0659756,-0.1277334,-0.1118265,-0.2912174
0.7300000,0.7300000,0.7300000,-0.1250302,-0.0033891,-1.0545703,-0.1250302,-0.1095470,-0.2850825
0.7325000,0.7325000,0.7325000,-0.1223930,-0.0033605,-1.0433286,-0.1223930,-0.1073226,-0.2790938
0.7350000,0.7350000,0.7350000,-0.1198201,-0.0033321,-1.0322475,-0.1198201,-0.1051519,-0.2732476
0.7375000,0.7375000,0.7375000,-0.1173099,-0.0033040,-1.0213242,-0.1173099,-0.1030333,-0.2675402
0.7400000,0.7400000,0.7400000,-0.1148605,-0.0032761,-1.0105559,-0.1148605,-0.1009654,-0.2619682
0.7425000,0.7425000,0.7425000,-0.1124703,-0.0032485,-0.9999399,-0.1124703,-0.0989469,-0.2565279
0.7450000,0.7450000,0.7450000,-0.1101377,-0.0032211,-0.9894733,-0.1101377,-0.0969764,-0.2512161
0.7475000,0.7475000,0.7475000,-0.1078612,-0.0031940,-0.9791536,-0.1078612,-0.0950526,-0.2460294
0.7500000,0.7500000,0.7500000,-0.1056392,-0.0031671,-0.9689782,-0.1056392,-0.0931742,-0.2409647
0.7525000,0.7525000,0.7525000,-0.1034703,-0.0031404,-0.9589446,-0.1034703,-0.0913401,-0.2360187
0.7550000,0.7550000,0.7550000,-0.1013531,-0.0031140,-0.9490503,-0.1013531,-0.0895490,-0.2311885
0.7575000,0.7575000,0.7575000,-0.0992861,-0.0030878,-0.9392929,-0.0992861,-0.0877997,-0.2264710
0.7600000,0.7600000,0.7600000,-0.0972680,-0.0030619,-0.9296700,-0.0972680,-0.0860912,-0.2218635
0.7625000,0.7625000,0.7625000,-0.0952976,-0.0030362,-0.9201792,-0.0952976,-0.0844224,-0.2173630
0.7650000,0.7650000,0.7650000,-0.0933735,-0.0030107,-0.9108184,-0.0933735,-0.0827922,-0.2129668
0.7675000,0.7675000,0.7675000,-0.0914945,-0.0029855,-0.9015852,-0.0914945,-0.0811996,-0.2086723
0.7700000,0.7700000,0.7700000,-0.0896595,-0.0029605,-0.8924775,-0.0896595,-0.0796436,-0.2044769
0.7725000,0.7725000,0.7725000,-0.0878672,-0.0029358,-0.8834931,-0.0878672,-0.0781232,-0.2003780
0.7750000,0.7750000,0.7750000,-0.0861166,-0.0029113,-0.8746301,-0.0861166,-0.0766376,-0.1963731
0.7775000,0.7775000,0.7775000,-0.0844065,-0.0028870,-0.8658862,-0.0844065,-0.0751857,-0.1924600
0.7800000,0.7800000,0.7800000,-0.0827359,-0.0028630,-0.8572595,-0.0827359,-0.0737667,-0.1886362
0.7825000,0.7825000,0.7825000,-0.0811037,-0.0028391,-0.8487480,-0.0811037,-0.0723798,-0.1848995
0.7850000,0.7850000,0.7850000,-0.0795090,-0.0028155,-0.8403498,-0.0795090,-0.0710241,-0.1812476
0.7875000,0.7875000,0.7875000,-0.0779508,-0.0027922,-0.8320630,-0.0779508,-0.0696988,-0.1776785
0.7900000,0.7900000,0.7900000,-0.0764281,-0.0027690,-0.8238858,-0.0764281,-0.0684031,-0.1741900
0.7925000,0.7925000,0.7925000,-0.0749400,-0.0027461,-0.8158163,-0.0749400,-0.0671364,-0.1707801
0.7950000,0.7950000,0.7950000,-0.0734857,-0.0027234,-0.8078528,-0.0734857,-0.0658977,-0.1674469
0.7975000,0.7975000,0.7975000,-0.0720642,-0.0027010,-0.7999934,-0.0720642,-0.0646864,-0.1641884
0.8000000,0.8000000,0.8000000,-0.0706747,-0.0026787,-0.7922366,-0.0706747,-0.0635019,-0.1610027
0.8025000,0.8025000,0.8025000,-0.0693164,-0.0026567,-0.7845805,-0.0693164,-0.0623434,-0.1578880
0.8050000,0.8050000,0.8050000,-0.0679885,-0.0026349,-0.7770237,-0.0679885,-0.0612103,-0.1548425
0.8075000,0.8075000,0.8075000,-0.0666902,-0.0026132,-0.7695643,-0.0666902,-0.0601019,-0.1518646
0.8100000,0.8100000,0.8100000,-0.0654208,-0.0025918,-0.7622010,-0.0654208,-0.0590176,-0.1489525
0.8125000,0.8125000,0.8125000,-0.0641796,-0.0025707,-0.7549321,-0.0641796,-0.0579568,-0.1461046
0.8150000,0.8150000,0.8150000,-0.0629658,-0.0025497,-0.7477562,-0.0629658,-0.0569189,-0.1433193
0.8175000,0.8175000,0.8175000,-0.0617788,-0.0025289,-0.7406716,-0.0617788,-0.0559034,-0.1405951
0.8200000,0.8200000,0.8200000,-0.0606178,-0.0025083,-0.7336770,-0.0606178,-0.0549097,-0.1379304
0.8225000,0.8225000,0.8225000,-0.0594823,-0.0024880,-0.7267709,-0.0594823,-0.0539372,-0.1353238
0.8250000,0.8250000,0.8250000,-0.0583715,-0.0024678,-0.7199520,-0.0583715,-0.0529855,-0.1327740
0.8275000,0.8275000,0.8275000,-0.0572849,-0.0024478,-0.7132187,-0.0572849,-0.0520540,-0.1302794
0.8300000,0.8300000,0.8300000,-0.0562219,-0.0024280,-0.7065699,-0.0562219,-0.0511422,-0.1278387
0.8325000,0.8325000,0.8325000,-0.0551819,-0.0024085,-0.7000042,-0.0551819,-0.0502496,-0.1254507
0.8350000,0.8350000,0.8350000,-0.0541644,-0.0023891,-0.6935201,-0.0541644,-0.0493758,-0.1231140
0.8375000,0.8375000,0.8375000,-0.0531687,-0.0023699,-0.6871166,-0.0531687,-0.0485203,-0.1208275
0.8400000,0.8400000,0.8400000,-0.0521943,-0.0023509,-0.6807923,-0.0521943,-0.0476827,-0.1185898
0.8425000,0.8425000,0.8425000,-0.0512408,-0.0023321,-0.6745460,-0.0512408,-0.0468626,-0.1163998
0.8450000,0.8450000,0.8450000,-0.0503076,-0.0023134,-0.6683765,-0.0503076,-0.0460594,-0.1142564
0.8475000,0.8475000,0.8475000,-0.0493942,-0.0022950,-0.6622826,-0.0493942,-0.0452729,-0.1121584
0.8500000,0.8500000,0.8500000,-0.0485002,-0.0022767,-0.6562631,-0.0485002,-0.0445026,-0.1101048
0.8525000,0.8525000,0.8525000,-0.0476250,-0.0022586,-0.6503170,-0.0476250,-0.0437481,-0.1080945
0.8550000,0.8550000,0.8550000,-0.0467683,-0.0022407,-0.6444430,-0.0467683,-0.0430090,-0.1061265
0.8575000,0.8575000,0.8575000,-0.0459295,-0.0022230,-0.6386401,-0.0459295,-0.0422851,-0.1041997
0.8600000,0.8600000,0.8600000,-0.0451083,-0.0022054,-0.6329072,-0.0451083,-0.0415758,-0.1023133
0.8625000,0.8625000,0.8625000,-0.0443042,-0.0021880,-0.6272432,-0.0443042,-0.0408810,-0.1004661
0.8650000,0.8650000,0.8650000,-0.0435169,-0.0021708,-0.6216472,-0.0435169,-0.0402002,-0.0986574
0.8675000,0.8675000,0.8675000,-0.0427458,-0.0021538,-0.6161180,-0.0427458,-0.0395331,-0.0968862
0.8700000,0.8700000,0.8700000,-0.0419907,-0.0021369,-0.6106547,-0.0419907,-0.0388794,-0.0951516
0.8725000,0.8725000,0.8725000,-0.0412512,-0.0021202,-0.6052563,-0.0412512,-0.0382388,-0.0934527
0.8750000,0.8750000,0.8750000,-0.0405269,-0.0021036,-0.5999218,-0.0405269,-0.0376109,-0.0917888
0.8775000,0.8775000,0.8775000,-0.0398174,-0.0020872,-0.5946503,-0.0398174,-0.0369956,-0.0901591
0.8800000,0.8800000,0.8800000,-0.0391224,-0.0020710,-0.5894409,-0.0391224,-0.0363924,-0.0885626
0.8825000,0.8825000,0.8825000,-0.0384415,-0.0020549,-0.5842925,-0.0384415,-0.0358011,-0.0869987
0.8850000,0.8850000,0.8850000,-0.0377745,-0.0020390,-0.5792044,-0.0377745,-0.0352215,-0.0854666
0.8875000,0.8875000,0.8875000,-0.0371210,-0.0020232,-0.5741756,-0.0371210,-0.0346533,-0.0839656
0.8900000,0.8900000,0.8900000,-0.0364807,-0.0020076,-0.5692053,-0.0364807,-0.0340962,-0.0824950
0.8925000,0.8925000,0.8925000,-0.0358533,-0.0019922,-0.5642927,-0.0358533,-0.0335500,-0.0810540
0.8950000,0.8950000,0.8950000,-0.0352385,-0.0019769,-0.5594368,-0.0352385,-0.0330143,-0.0796420
0.8975000,0.8975000,0.8975000,-0.0346360,-0.0019617,-0.5546368,-0.0346360,-0.0324891,-0.0782583
0.9000000,0.9000000,0.9000000,-0.0340455,-0.0019467,-0.5498920,-0.0340455,-0.0319740,-0.0769023
0.9025000,0.9025000,0.9025000,-0.0334668,-0.0019318,-0.5452016,-0.0334668,-0.0314688,-0.0755734
0.9050000,0.9050000,0.9050000,-0.0328995,-0.0019171,-0.5405647,-0.0328995,-0.0309733,-0.0742709
0.9075000,0.9075000,0.9075000,-0.0323435,-0.0019026,-0.5359807,-0.0323435,-0.0304873,-0.0729942
0.9100000,0.9100000,0.9100000,-0.0317984,-0.0018881,-0.5314487,-0.0317984,-0.0300105,-0.0717428
0.9125000,0.9125000,0.9125000,-0.0312641,-0.0018738,-0.5269680,-0.0312641,-0.0295429,-0.0705161
0.9150000,0.9150000,0.9150000,-0.0307402,-0.0018597,-0.5225379,-0.0307402,-0.0290841,-0.0693136
0.9175000,0.9175000,0.9175000,-0.0302266,-0.0018456,-0.5181576,-0.0302266,-0.0286339,-0.0681346
0.9200000,0.9200000,0.9200000,-0.0297230,-0.0018317,-0.5138265,-0.0297230,-0.0281922,-0.0669788
0.9225000,0.9225000,0.9225000,-0.0292293,-0.0018180,-0.5095439,-0.0292293,-0.0277589,-0.0658455
0.9250000,0.9250000,0.9250000,-0.0287450,-0.0018044,-0.5053090,-0.0287450,-0.0273336,-0.0647342
0.9275000,0.9275000,0.9275000,-0.0282702,-0.0017909,-0.5011213,-0.0282702,-0.0269163,-0.0636446
0.9300000,0.9300000,0.9300000,-0.0278045,-0.0017775,-0.4969801,-0.0278045,-0.0265067,-0.0625761
0.9325000,0.9325000,0.9325000,-0.0273478,-0.0017643,-0.4928846,-0.0273478,-0.0261047,-0.0615282
0.9350000,0.9350000,0.9350000,-0.0268998,-0.0017512,-0.4888343,-0.0268998,-0.0257102,-0.0605004
0.9375000,0.9375000,0.9375000,-0.0264604,-0.0017382,-0.4848286,-0.0264604,-0.0253229,-0.0594925
0.9400000,0.9400000,0.9400000,-0.0260294,-0.0017253,-0.4808668,-0.0260294,-0.0249428,-0.0585038
0.9425000,0.9425000,0.9425000,-0.0256065,-0.0017126,-0.4769484,-0.0256065,-0.0245696,-0.0575341
0.9450000,0.9450000,0.9450000,-0.0251917,-0.0017000,-0.4730727,-0.0251917,-0.0242032,-0.0565828
0.9475000,0.9475000,0.9475000,-0.0247847,-0.0016874,-0.4692391,-0.0247847,-0.0238435,-0.0556496
0.9500000,0.9500000,0.9500000,-0.0243855,-0.0016751,-0.4654472,-0.0243855,-0.0234903,-0.0547342
0.9525000,0.9525000,0.9525000,-0.0239937,-0.0016628,-0.4616962,-0.0239937,-0.0231435,-0.0538360
0.9550000,0.9550000,0.9550000,-0.0236093,-0.0016506,-0.4579857,-0.0236093,-0.0228029,-0.0529548
0.9575000,0.9575000,0.9575000,-0.0232320,-0.0016386,-0.4543151,-0.0232320,-0.0224685,-0.0520901
0.9600000,0.9600000,0.9600000,-0.0228618,-0.0016267,-0.4506839,-0.0228618,-0.0221401,-0.0512417
0.9625000,0.9625000,0.9625000,-0.0224985,-0.0016149,-0.4470915,-0.0224985,-0.0218176,-0.0504092
0.9650000,0.9650000,0.9650000,-0.0221419,-0.0016032,-0.4435374,-0.0221419,-0.0215008,-0.0495922
0.9675000,0.9675000,0.9675000,-0.0217920,-0.0015916,-0.4400212,-0.0217920,-0.0211896,-0.0487904
0.9700000,0.9700000,0.9700000,-0.0214485,-0.0015801,-0.4365422,-0.0214485,-0.0208839,-0.0480036
0.9725000,0.9725000,0.9725000,-0.0211113,-0.0015687,-0.4331000,-0.0211113,-0.0205836,-0.0472313
0.9750000,0.9750000,0.9750000,-0.0207803,-0.0015574,-0.4296942,-0.0207803,-0.0202887,-0.0464732
0.9775000,0.9775000,0.9775000,-0.0204553,-0.0015463,-0.4263242,-0.0204553,-0.0199989,-0.0457292
0.9800000,0.9800000,0.9800000,-0.0201363,-0.0015352,-0.4229896,-0.0201363,-0.0197141,-0.0449988
0.9825000,0.9825000,0.9825000,-0.0198231,-0.0015242,-0.4196899,-0.0198231,-0.0194344,-0.0442818
0.9850000,0.9850000,0.9850000,-0.0195156,-0.0015134,-0.4164246,-0.0195156,-0.0191595,-0.0435780
0.9875000,0.9875000,0.9875000,-0.0192137,-0.0015026,-0.4131933,-0.0192137,-0.0188894,-0.0428870
0.9900000,0.9900000,0.9900000,-0.0189172,-0.0014920,-0.4099955,-0.0189172,-0.0186239,-0.0422085
0.9925000,0.9925000,0.9925000,-0.0186261,-0.0014814,-0.4068309,-0.0186261,-0.0183630,-0.0415424
0.9950000,0.9950000,0.9950000,-0.0183401,-0.0014709,-0.4036989,-0.0183401,-0.0181066,-0.0408883
0.9975000,0.9975000,0.9975000,-0.0180594,-0.0014606,-0.4005992,-0.0180594,-0.0178546,-0.0402461
1.0000000,1.0000000,1.0000000,-0.0177836,-0.0014503,-0.3975314,-0.0177836,-0.0176069,-0.0396154
1.0025000,1.0025000,1.0025000,-0.0175127,-0.0014401,-0.3944949,-0.0175127,-0.0173635,-0.0389961
1.0050000,1.0050000,1.0050000,-0.0172467,-0.0014300,-0.3914895,-0.0172467,-0.0171241,-0.0383879
1.0075000,1.0075000,1.0075000,-0.0169854,-0.0014200,-0.3885147,-0.0169854,-0.0168889,-0.0377905
1.0100000,1.0100000,1.0100000,-0.0167287,-0.0014101,-0.3855702,-0.0167287,-0.0166576,-0.0372039
1.0125000,1.0125000,1.0125000,-0.0164765,-0.0014003,-0.3826555,-0.0164765,-0.0164302,-0.0366276
1.0150000,1.0150000,1.0150000,-0.0162288,-0.0013905,-0.3797703,-0.0162288,-0.0162066,-0.0360616
1.0175000,1.0175000,1.0175000,-0.0159854,-0.0013809,-0.3769142,-0.0159854,-0.0159867,-0.0355056
1.0200000,1.0200000,1.0200000,-0.0157463,-0.0013713,-0.3740868,-0.0157463,-0.0157706,-0.0349595
1.0225000,1.0225000,1.0225000,-0.0155114,-0.0013619,-0.3712878,-0.0155114,-0.0155580,-0.0344229
1.0250000,1.0250000,1.0250000,-0.0152806,-0.0013525,-0.3685168,-0.0152806,-0.0153489,-0.0338958
1.0275000,1.0275000,1.0275000,-0.0150537,-0.0013432,-0.3657734,-0.0150537,-0.0151434,-0.0333780
1.0300000,1.0300000,1.0300000,-0.0148308,-0.0013340,-0.3630574,-0.0148308,-0.0149412,-0.0328692
1.0325000,1.0325000,1.0325000,-0.0146118,-0.0013248,-0.3603683,-0.0146118,-0.0147423,-0.0323693
1.0350000,1.0350000,1.0350000,-0.0143965,-0.0013158,-0.3577059,-0.0143965,-0.0145467,-0.0318781
1.0375000,1.0375000,1.0375000,-0.0141849,-0.0013068,-0.3550698,-0.0141849,-0.0143543,-0.0313954
1.0400000,1.0400000,1.0400000,-0.0139770,-0.0012979,-0.3524597,-0.0139770,-0.0141651,-0.0309211
1.0425000,1.0425000,1.0425000,-0.0137726,-0.0012891,-0.3498752,-0.0137726,-0.0139789,-0.0304550
1.0450000,1.0450000,1.0450000,-0.0135717,-0.0012804,-0.3473161,-0.0135717,-0.0137958,-0.0299969
1.0475000,1.0475000,1.0475000,-0.0133743,-0.0012717,-0.3447820,-0.0133743,-0.0136156,-0.0295468
1.0500000,1.0500000,1.0500000,-0.0131802,-0.0012631,-0.3422726,-0.0131802,-0.0134383,-0.0291043
1.0525000,1.0525000,1.0525000,-0.0129893,-0.0012546,-0.3397876,-0.0129893,-0.0132639,-0.0286694
1.0550000,1.0550000,1.0550000,-0.0128017,-0.0012462,-0.3373268,-0.0128017,-0.0130922,-0.0282420
1.0575000,1.0575000,1.0575000,-0.0126173,-0.0012378,-0.3348898,-0.0126173,-0.0129233,-0.0278218
1.0600000,1.0600000,1.0600000,-0.0124360,-0.0012295,-0.3324764,-0.0124360,-0.0127572,-0.0274088
1.0625000,1.0625000,1.0625000,-0.0122577,-0.0012213,-0.3300862,-0.0122577,-0.0125936,-0.0270028
1.0650000,1.0650000,1.0650000,-0.0120824,-0.0012132,-0.3277189,-0.0120824,-0.0124327,-0.0266037
1.0675000,1.0675000,1.0675000,-0.0119100,-0.0012051,-0.3253744,-0.0119100,-0.0122743,-0.0262113
1.0700000,1.0700000,1.0700000,-0.0117405,-0.0011971,-0.3230523,-0.0117405,-0.0121184,-0.0258256
1.0725000,1.0725000,1.0725000,-0.0115738,-0.0011892,-0.3207524,-0.0115738,-0.0119649,-0.0254463
1.0750000,1.0750000,1.0750000,-0.0114099,-0.0011813,-0.3184743,-0.0114099,-0.0118139,-0.0250733
1.0775000,1.0775000,1.0775000,-0.0112487,-0.0011735,-0.3162179,-0.0112487,-0.0116652,-0.0247067
1.0800000,1.0800000,1.0800000,-0.0110901,-0.0011658,-0.3139829,-0.0110901,-0.0115188,-0.0243461
1.0825000,1.0825000,1.0825000,-0.0109342,-0.0011581,-0.3117690,-0.0109342,-0.0113747,-0.0239916
1.0850000,1.0850000,1.0850000,-0.0107808,-0.0011505,-0.3095759,-0.0107808,-0.0112329,-0.0236429
1.0875000,1.0875000,1.0875000,-0.0106299,-0.0011430,-0.3074035,-0.0106299,-0.0110932,-0.0233000
1.0900000,1.0900000,1.0900000,-0.0104815,-0.0011355,-0.3052514,-0.0104815,-0.0109558,-0.0229628
1.0925000,1.0925000,1.0925000,-0.0103355,-0.0011281,-0.3031195,-0.0103355,-0.0108204,-0.0226312
1.0950000,1.0950000,1.0950000,-0.0101919,-0.0011208,-0.3010075,-0.0101919,-0.0106871,-0.0223050
1.0975000,1.0975000,1.0975000,-0.0100506,-0.0011135,-0.2989152,-0.0100506,-0.0105558,-0.0219842
1.1000000,1.1000000,1.1000000,-0.0099116,-0.0011063,-0.2968423,-0.0099116,-0.0104266,-0.0216686
1.1025000,1.1025000,1.1025000,-0.0097749,-0.0010991,-0.2947886,-0.0097749,-0.0102993,-0.0213582
1.1050000,1.1050000,1.1050000,-0.0096403,-0.0010920,-0.2927539,-0.0096403,-0.0101739,-0.0210529
1.1075000,1.1075000,1.1075000,-0.0095079,-0.0010850,-0.2907380,-0.0095079,-0.0100505,-0.0207526
1.1100000,1.1100000,1.1100000,-0.0093777,-0.0010780,-0.2887407,-0.0093777,-0.0099289,-0.0204571
1.1125000,1.1125000,1.1125000,-0.0092495,-0.0010711,-0.2867617,-0.0092495,-0.0098091,-0.0201664
1.1150000,1.1150000,1.1150000,-0.0091233,-0.0010642,-0.2848008,-0.0091233,-0.0096911,-0.0198805
1.1175000,1.1175000,1.1175000,-0.0089992,-0.0010574,-0.2828578,-0.0089992,-0.0095750,-0.0195991
1.1200000,1.1200000,1.1200000,-0.0088770,-0.0010507,-0.2809326,-0.0088770,-0.0094605,-0.0193223
1.1225000,1.1225000,1.1225000,-0.0087568,-0.0010440,-0.2790248,-0.0087568,-0.0093477,-0.0190499
1.1250000,1.1250000,1.1250000,-0.0086385,-0.0010374,-0.2771344,-0.0086385,-0.0092367,-0.0187819
1.1275000,1.1275000,1.1275000,-0.0085220,-0.0010308,-0.2752611,-0.0085220,-0.0091272,-0.0185182
1.1300000,1.1300000,1.1300000,-0.0084074,-0.0010243,-0.2734048,-0.0084074,-0.0090194,-0.0182587
1.1325000,1.1325000,1.1325000,-0.0082946,-0.0010178,-0.2715651,-0.0082946,-0.0089132,-0.0180033
1.1350000,1.1350000,1.1350000,-0.0081835,-0.0010114,-0.2697420,-0.0081835,-0.0088085,-0.0177520
1.1375000,1.1375000,1.1375000,-0.0080742,-0.0010050,-0.2679353,-0.0080742,-0.0087054,-0.0175047
1.1400000,1.1400000,1.1400000,-0.0079666,-0.0009987,-0.2661447,-0.0079666,-0.0086038,-0.0172613
1.1425000,1.1425000,1.1425000,-0.0078607,-0.0009924,-0.2643701,-0.0078607,-0.0085036,-0.0170218
1.1450000,1.1450000,1.1450000,-0.0077564,-0.0009862,-0.2626114,-0.0077564,-0.0084050,-0.0167860
1.1475000,1.1475000,1.1475000,-0.0076537,-0.0009801,-0.2608682,-0.0076537,-0.0083077,-0.0165539
1.1500000,1.1500000,1.1500000,-0.0075526,-0.0009740,-0.2591406,-0.0075526,-0.0082119,-0.0163255
1.1525000,1.1525000,1.1525000,-0.0074531,-0.0009679,-0.2574282,-0.0074531,-0.0081174,-0.0161007
1.1550000,1.1550000,1.1550000,-0.0073551,-0.0009619,-0.2557309,-0.0073551,-0.0080243,-0.0158793
1.1575000,1.1575000,1.1575000,-0.0072586,-0.0009560,-0.2540486,-0.0072586,-0.0079326,-0.0156615
1.1600000,1.1600000,1.1600000,-0.0071635,-0.0009501,-0.2523811,-0.0071635,-0.0078421,-0.0154470
1.1625000,1.1625000,1.1625000,-0.0070700,-0.0009442,-0.2507282,-0.0070700,-0.0077530,-0.0152358
1.1650000,1.1650000,1.1650000,-0.0069778,-0.0009384,-0.2490898,-0.0069778,-0.0076651,-0.0150279
1.1675000,1.1675000,1.1675000,-0.0068871,-0.0009326,-0.2474657,-0.0068871,-0.0075784,-0.0148233
1.1700000,1.1700000,1.1700000,-0.0067977,-0.0009269,-0.2458557,-0.0067977,-0.0074930,-0.0146218
1.1725000,1.1725000,1.1725000,-0.0067097,-0.0009212,-0.2442598,-0.0067097,-0.0074088,-0.0144234
1.1750000,1.1750000,1.1750000,-0.0066230,-0.0009156,-0.2426776,-0.0066230,-0.0073258,-0.0142280
1.1775000,1.1775000,1.1775000,-0.0065377,-0.0009100,-0.2411092,-0.0065377,-0.0072440,-0.0140357
1.1800000,1.1800000,1.1800000,-0.0064536,-0.0009045,-0.2395543,-0.0064536,-0.0071633,-0.0138463
1.1825000,1.1825000,1.1825000,-0.0063708,-0.0008990,-0.2380128,-0.0063708,-0.0070837,-0.0136598
1.1850000,1.1850000,1.1850000,-0.0062892,-0.0008935,-0.2364846,-0.0062892,-0.0070052,-0.0134761
1.1875000,1.1875000,1.1875000,-0.0062088,-0.0008881,-0.2349694,-0.0062088,-0.0069279,-0.0132952
1.1900000,1.1900000,1.1900000,-0.0061296,-0.0008827,-0.2334673,-0.0061296,-0.0068516,-0.0131171
1.1925000,1.1925000,1.1925000,-0.0060516,-0.0008774,-0.2319779,-0.0060516,-0.0067763,-0.0129417
1.1950000,1.1950000,1.1950000,-0.0059748,-0.0008721,-0.2305013,-0.0059748,-0.0067021,-0.0127689
1.1975000,1.1975000,1.1975000,-0.0058991,-0.0008669,-0.2290372,-0.0058991,-0.0066290,-0.0125988
1.2000000,1.2000000,1.2000000,-0.0058246,-0.0008617,-0.2275856,-0.0058246,-0.0065568,-0.0124312
1.2025000,1.2025000,1.2025000,-0.0057511,-0.0008566,-0.2261462,-0.0057511,-0.0064856,-0.0122661
1.2050000,1.2050000,1.2050000,-0.0056787,-0.0008514,-0.2247190,-0.0056787,-0.0064154,-0.0121035
1.2075000,1.2075000,1.2075000,-0.0056074,-0.0008464,-0.2233038,-0.0056074,-0.0063461,-0.0119433
1.2100000,1.2100000,1.2100000,-0.0055371,-0.0008413,-0.2219006,-0.0055371,-0.0062778,-0.0117856
1.2125000,1.2125000,1.2125000,-0.0054678,-0.0008363,-0.2205091,-0.0054678,-0.0062105,-0.0116301
1.2150000,1.2150000,1.2150000,-0.0053996,-0.0008314,-0.2191293,-0.0053996,-0.0061440,-0.0114770
1.2175000,1.2175000,1.2175000,-0.0053323,-0.0008265,-0.2177610,-0.0053323,-0.0060784,-0.0113262
1.2200000,1.2200000,1.2200000,-0.0052661,-0.0008216,-0.2164041,-0.0052661,-0.0060137,-0.0111776
1.2225000,1.2225000,1.2225000,-0.0052008,-0.0008167,-0.2150585,-0.0052008,-0.0059499,-0.0110312
1.2250000,1.2250000,1.2250000,-0.0051364,-0.0008119,-0.2137241,-0.0051364,-0.0058869,-0.0108870
1.2275000,1.2275000,1.2275000,-0.0050730,-0.0008072,-0.2124007,-0.0050730,-0.0058248,-0.0107449
1.2300000,1.2300000,1.2300000,-0.0050104,-0.0008024,-0.2110883,-0.0050104,-0.0057635,-0.0106049
1.2325000,1.2325000,1.2325000,-0.0049488,-0.0007977,-0.2097868,-0.0049488,-0.0057030,-0.0104669
1.2350000,1.2350000,1.2350000,-0.0048881,-0.0007931,-0.2084959,-0.0048881,-0.0056434,-0.0103310
1.2375000,1.2375000,1.2375000,-0.0048282,-0.0007885,-0.2072157,-0.0048282,-0.0055845,-0.0101971
1.2400000,1.2400000,1.2400000,-0.0047692,-0.0007839,-0.2059459,-0.0047692,-0.0055264,-0.0100651
1.2425000,1.2425000,1.2425000,-0.0047110,-0.0007793,-0.2046866,-0.0047110,-0.0054690,-0.0099350
1.2450000,1.2450000,1.2450000,-0.0046537,-0.0007748,-0.2034375,-0.0046537,-0.0054124,-0.0098068
1.2475000,1.2475000,1.2475000,-0.0045972,-0.0007703,-0.2021986,-0.0045972,-0.0053566,-0.0096805
1.2500000,1.2500000,1.2500000,-0.0045414,-0.0007659,-0.2009698,-0.0045414,-0.0053014,-0.0095560
1.2525000,1.2525000,1.2525000,-0.0044865,-0.0007615,-0.1997510,-0.0044865,-0.0052470,-0.0094333
1.2550000,1.2550000,1.2550000,-0.0044324,-0.0007571,-0.1985420,-0.0044324,-0.0051933,-0.0093124
1.2575000,1.2575000,1.2575000,-0.0043790,-0.0007527,-0.1973428,-0.0043790,-0.0051403,-0.0091933
1.2600000,1.2600000,1.2600000,-0.0043263,-0.0007484,-0.1961533,-0.0043263,-0.0050880,-0.0090758
1.2625000,1.2625000,1.2625000,-0.0042744,-0.0007441,-0.1949734,-0.0042744,-0.0050364,-0.0089600
1.2650000,1.2650000,1.2650000,-0.0042232,-0.0007399,-0.1938029,-0.0042232,-0.0049854,-0.0088459
1.2675000,1.2675000,1.2675000,-0.0041728,-0.0007357,-0.1926418,-0.0041728,-0.0049351,-0.0087334
1.2700000,1.2700000,1.2700000,-0.0041230,-0.0007315,-0.1914901,-0.0041230,-0.0048854,-0.0086226
1.2725000,1.2725000,1.2725000,-0.0040739,-0.0007273,-0.1903475,-0.0040739,-0.0048364,-0.0085133
1.2750000,1.2750000,1.2750000,-0.0040255,-0.0007232,-0.1892140,-0.0040255,-0.0047880,-0.0084055
1.2775000,1.2775000,1.2775000,-0.0039778,-0.0007191,-0.1880895,-0.0039778,-0.0047402,-0.0082993
1.2800000,1.2800000,1.2800000,-0.0039308,-0.0007151,-0.1869740,-0.0039308,-0.0046930,-0.0081946
1.2825000,1.2825000,1.2825000,-0.0038843,-0.0007110,-0.1858673,-0.0038843,-0.0046464,-0.0080914
1.2850000,1.2850000,1.2850000,-0.0038386,-0.0007070,-0.1847693,-0.0038386,-0.0046004,-0.0079896
1.2875000,1.2875000,1.2875000,-0.0037934,-0.0007030,-0.1836800,-0.0037934,-0.0045550,-0.0078893
1.2900000,1.2900000,1.2900000,-0.0037489,-0.0006991,-0.1825993,-0.0037489,-0.0045101,-0.0077904
1.2925000,1.2925000,1.2925000,-0.0037050,-0.0006952,-0.1815271,-0.0037050,-0.0044658,-0.0076928
1.2950000,1.2950000,1.2950000,-0.0036617,-0.0006913,-0.1804632,-0.0036617,-0.0044221,-0.0075967
1.2975000,1.2975000,1.2975000,-0.0036190,-0.0006874,-0.1794078,-0.0036190,-0.0043789,-0.0075019
1.3000000,1.3000000,1.3000000,-0.0035768,-0.0006836,-0.1783605,-0.0035768,-0.0043362,-0.0074084
1.3025000,1.3025000,1.3025000,-0.0035353,-0.0006798,-0.1773214,-0.0035353,-0.0042941,-0.0073162
1.3050000,1.3050000,1.3050000,-0.0034943,-0.0006760,-0.1762904,-0.0034943,-0.0042525,-0.0072252
1.3075000,1.3075000,1.3075000,-0.0034538,-0.0006723,-0.1752674,-0.0034538,-0.0042114,-0.0071356
1.3100000,1.3100000,1.3100000,-0.0034139,-0.0006686,-0.1742523,-0.0034139,-0.0041708,-0.0070472
1.3125000,1.3125000,1.3125000,-0.0033746,-0.0006649,-0.1732451,-0.0033746,-0.0041308,-0.0069600
1.3150000,1.3150000,1.3150000,-0.0033357,-0.0006612,-0.1722457,-0.0033357,-0.0040912,-0.0068740
1.3175000,1.3175000,1.3175000,-0.0032974,-0.0006576,-0.1712539,-0.0032974,-0.0040521,-0.0067892
1.3200000,1.3200000,1.3200000,-0.0032596,-0.0006540,-0.1702698,-0.0032596,-0.0040134,-0.0067056
1.3225000,1.3225000,1.3225000,-0.0032223,-0.0006504,-0.1692932,-0.0032223,-0.0039753,-0.0066231
1.3250000,1.3250000,1.3250000,-0.0031855,-0.0006468,-0.1683241,-0.0031855,-0.0039376,-0.0065418
1.3275000,1.3275000,1.3275000,-0.0031492,-0.0006433,-0.1673624,-0.0031492,-0.0039003,-0.0064616
1.3300000,1.3300000,1.3300000,-0.0031134,-0.0006398,-0.1664081,-0.0031134,-0.0038635,-0.0063824
1.3325000,1.3325000,1.3325000,-0.0030781,-0.0006363,-0.1654610,-0.0030781,-0.0038272,-0.0063044
1.3350000,1.3350000,1.3350000,-0.0030432,-0.0006329,-0.1645211,-0.0030432,-0.0037913,-0.0062274
1.3375000,1.3375000,1.3375000,-0.0030088,-0.0006294,-0.1635883,-0.0030088,-0.0037558,-0.0061514
1.3400000,1.3400000,1.3400000,-0.0029748,-0.0006260,-0.1626626,-0.0029748,-0.0037208,-0.0060765
1.3425000,1.3425000,1.3425000,-0.0029413,-0.0006226,-0.1617439,-0.0029413,-0.0036861,-0.0060026
1.3450000,1.3450000,1.3450000,-0.0029082,-0.0006193,-0.1608321,-0.0029082,-0.0036519,-0.0059297
1.3475000,1.3475000,1.3475000,-0.0028756,-0.0006159,-0.1599272,-0.0028756,-0.0036181,-0.0058578
1.3500000,1.3500000,1.3500000,-0.0028434,-0.0006126,-0.1590291,-0.0028434,-0.0035847,-0.0057869
1.3525000,1.3525000,1.3525000,-0.0028116,-0.0006093,-0.1581377,-0.0028116,-0.0035517,-0.0057169
1.3550000,1.3550000,1.3550000,-0.0027802,-0.0006061,-0.1572530,-0.0027802,-0.0035191,-0.0056478
1.3575000,1.3575000,1.3575000,-0.0027492,-0.0006028,-0.1563749,-0.0027492,-0.0034868,-0.0055797
1.3600000,1.3600000,1.3600000,-0.0027187,-0.0005996,-0.1555033,-0.0027187,-0.0034550,-0.0055125
1.3625000,1.3625000,1.3625000,-0.0026885,-0.0005964,-0.1546383,-0.0026885,-0.0034235,-0.0054462
1.3650000,1.3650000,1.3650000,-0.0026587,-0.0005932,-0.1537796,-0.0026587,-0.0033924,-0.0053808
1.3675000,1.3675000,1.3675000,-0.0026293,-0.0005901,-0.1529273,-0.0026293,-0.0033616,-0.0053162
1.3700000,1.3700000,1.3700000,-0.0026003,-0.0005870,-0.1520814,-0.0026003,-0.0033312,-0.0052525
1.3725000,1.3725000,1.3725000,-0.0025717,-0.0005839,-0.1512416,-0.0025717,-0.0033012,-0.0051897
1.3750000,1.3750000,1.3750000,-0.0025434,-0.0005808,-0.1504081,-0.0025434,-0.0032715,-0.0051276
1.3775000,1.3775000,1.3775000,-0.0025155,-0.0005777,-0.1495807,-0.0025155,-0.0032421,-0.0050664
1.3800000,1.3800000,1.3800000,-0.0024879,-0.0005747,-0.1487594,-0.0024879,-0.0032131,-0.0050061
1.3825000,1.3825000,1.3825000,-0.0024607,-0.0005716,-0.1479440,-0.0024607,-0.0031844,-0.0049465
1.3850000,1.3850000,1.3850000,-0.0024339,-0.0005686,-0.1471347,-0.0024339,-0.0031561,-0.0048877
1.3875000,1.3875000,1.3875000,-0.0024074,-0.0005657,-0.1463313,-0.0024074,-0.0031281,-0.0048296
1.3900000,1.3900000,1.3900000,-0.0023812,-0.0005627,-0.1455337,-0.0023812,-0.0031004,-0.0047723
1.3925000,1.3925000,1.3925000,-0.0023553,-0.0005598,-0.1447419,-0.0023553,-0.0030730,-0.0047158
1.3950000,1.3950000,1.3950000,-0.0023298,-0.0005568,-0.1439559,-0.0023298,-0.0030459,-0.0046600
1.3975000,1.3975000,1.3975000,-0.0023046,-0.0005539,-0.1431756,-0.0023046,-0.0030191,-0.0046050
1.4000000,1.4000000,1.4000000,-0.0022798,-0.0005511,-0.1424009,-0.0022798,-0.0029927,-0.0045507
1.4025000,1.4025000,1.4025000,-0.0022552,-0.0005482,-0.1416318,-0.0022552,-0.0029665,-0.0044970
1.4050000,1.4050000,1.4050000,-0.0022309,-0.0005454,-0.1408683,-0.0022309,-0.0029406,-0.0044441
1.4075000,1.4075000,1.4075000,-0.0022070,-0.0005425,-0.1401102,-0.0022070,-0.0029151,-0.0043919
1.4100000,1.4100000,1.4100000,-0.0021833,-0.0005397,-0.1393576,-0.0021833,-0.0028898,-0.0043403
1.4125000,1.4125000,1.4125000,-0.0021600,-0.0005370,-0.1386104,-0.0021600,-0.0028648,-0.0042894
1.4150000,1.4150000,1.4150000,-0.0021369,-0.0005342,-0.1378686,-0.0021369,-0.0028400,-0.0042391
1.4175000,1.4175000,1.4175000,-0.0021142,-0.0005315,-0.1371320,-0.0021142,-0.0028156,-0.0041896
1.4200000,1.4200000,1.4200000,-0.0020917,-0.0005287,-0.1364007,-0.0020917,-0.0027914,-0.0041406
1.4225000,1.4225000,1.4225000,-0.0020695,-0.0005260,-0.1356746,-0.0020695,-0.0027675,-0.0040923
1.4250000,1.4250000,1.4250000,-0.0020475,-0.0005233,-0.1349537,-0.0020475,-0.0027439,-0.0040446
1.4275000,1.4275000,1.4275000,-0.0020259,-0.0005207,-0.1342379,-0.0020259,-0.0027205,-0.0039975
1.4300000,1.4300000,1.4300000,-0.0020045,-0.0005180,-0.1335271,-0.0020045,-0.0026973,-0.0039510
1.4325000,1.4325000,1.4325000,-0.0019833,-0.0005154,-0.1328214,-0.0019833,-0.0026745,-0.0039051
1.4350000,1.4350000,1.4350000,-0.0019624,-0.0005128,-0.1321206,-0.0019624,-0.0026519,-0.0038598
1.4375000,1.4375000,1.4375000,-0.0019418,-0.0005102,-0.1314248,-0.0019418,-0.0026295,-0.0038150
1.4400000,1.4400000,1.4400000,-0.0019215,-0.0005076,-0.1307339,-0.0019215,-0.0026074,-0.0037709
1.4425000,1.4425000,1.4425000,-0.0019013,-0.0005050,-0.1300478,-0.0019013,-0.0025855,-0.0037273
1.4450000,1.4450000,1.4450000,-0.0018815,-0.0005025,-0.1293665,-0.0018815,-0.0025638,-0.0036842
1.4475000,1.4475000,1.4475000,-0.0018618,-0.0004999,-0.1286900,-0.0018618,-0.0025424,-0.0036417
1.4500000,1.4500000,1.4500000,-0.0018425,-0.0004974,-0.1280182,-0.0018425,-0.0025212,-0.0035997
1.4525000,1.4525000,1.4525000,-0.0018233,-0.0004949,-0.1273511,-0.0018233,-0.0025003,-0.0035583
1.4550000,1.4550000,1.4550000,-0.0018044,-0.0004924,-0.1266886,-0.0018044,-0.0024795,-0.0035174
1.4575000,1.4575000,1.4575000,-0.0017857,-0.0004900,-0.1260308,-0.0017857,-0.0024590,-0.0034770
1.4600000,1.4600000,1.4600000,-0.0017672,-0.0004875,-0.1253775,-0.0017672,-0.0024388,-0.0034371
1.4625000,1.4625000,1.4625000,-0.0017490,-0.0004851,-0.1247287,-0.0017490,-0.0024187,-0.0033977
1.4650000,1.4650000,1.4650000,-0.0017310,-0.0004827,-0.1240844,-0.0017310,-0.0023988,-0.0033588
1.4675000,1.4675000,1.4675000,-0.0017131,-0.0004803,-0.1234445,-0.0017131,-0.0023792,-0.0033203
1.4700000,1.4700000,1.4700000,-0.0016956,-0.0004779,-0.1228090,-0.0016956,-0.0023598,-0.0032824
1.4725000,1.4725000,1.4725000,-0.0016782,-0.0004755,-0.1221779,-0.0016782,-0.0023405,-0.0032449
1.4750000,1.4750000,1.4750000,-0.0016610,-0.0004732,-0.1215512,-0.0016610,-0.0023215,-0.0032079
1.4775000,1.4775000,1.4775000,-0.0016440,-0.0004708,-0.1209287,-0.0016440,-0.0023027,-0.0031714
1.4800000,1.4800000,1.4800000,-0.0016273,-0.0004685,-0.1203105,-0.0016273,-0.0022841,-0.0031353
1.4825000,1.4825000,1.4825000,-0.0016107,-0.0004662,-0.1196965,-0.0016107,-0.0022657,-0.0030997
1.4850000,1.4850000,1.4850000,-0.0015943,-0.0004639,-0.1190866,-0.0015943,-0.0022474,-0.0030645
1.4875000,1.4875000,1.4875000,-0.0015781,-0.0004616,-0.1184810,-0.0015781,-0.0022294,-0.0030297
1.4900000,1.4900000,1.4900000,-0.0015622,-0.0004594,-0.1178794,-0.0015622,-0.0022115,-0.0029954
1.4925000,1.4925000,1.4925000,-0.0015464,-0.0004571,-0.1172819,-0.0015464,-0.0021939,-0.0029615
1.4950000,1.4950000,1.4950000,-0.0015307,-0.0004549,-0.1166885,-0.0015307,-0.0021764,-0.0029280
1.4975000,1.4975000,1.4975000,-0.0015153,-0.0004527,-0.1160990,-0.0015153,-0.0021591,-0.0028949
1.5000000,1.5000000,1.5000000,-0.0015001,-0.0004505,-0.1155136,-0.0015001,-0.0021420,-0.0028622
1.5025000,1.5025000,1.5025000,-0.0014850,-0.0004483,-0.1149320,-0.0014850,-0.0021250,-0.0028300
1.5050000,1.5050000,1.5050000,-0.0014701,-0.0004461,-0.1143544,-0.0014701,-0.0021083,-0.0027981
1.5075000,1.5075000,1.5075000,-0.0014554,-0.0004440,-0.1137807,-0.0014554,-0.0020917,-0.0027666
1.5100000,1.5100000,1.5100000,-0.0014409,-0.0004418,-0.1132108,-0.0014409,-0.0020752,-0.0027355
1.5125000,1.5125000,1.5125000,-0.0014265,-0.0004397,-0.1126447,-0.0014265,-0.0020590,-0.0027048
1.5150000,1.5150000,1.5150000,-0.0014123,-0.0004375,-0.1120824,-0.0014123,-0.0020429,-0.0026744
1.5175000,1.5175000,1.5175000,-0.0013982,-0.0004354,-0.1115238,-0.0013982,-0.0020270,-0.0026444
1.5200000,1.5200000,1.5200000,-0.0013844,-0.0004333,-0.1109689,-0.0013844,-0.0020112,-0.0026148
1.5225000,1.5225000,1.5225000,-0.0013706,-0.0004313,-0.1104178,-0.0013706,-0.0019956,-0.0025855
1.5250000,1.5250000,1.5250000,-0.0013571,-0.0004292,-0.1098702,-0.0013571,-0.0019802,-0.0025566
1.5275000,1.5275000,1.5275000,-0.0013437,-0.0004271,-0.1093263,-0.0013437,-0.0019649,-0.0025281
1.5300000,1.5300000,1.5300000,-0.0013304,-0.0004251,-0.1087860,-0.0013304,-0.0019497,-0.0024998
1.5325000,1.5325000,1.5325000,-0.0013173,-0.0004231,-0.1082493,-0.0013173,-0.0019348,-0.0024720
1.5350000,1.5350000,1.5350000,-0.0013044,-0.0004211,-0.1077161,-0.0013044,-0.0019199,-0.0024444
1.5375000,1.5375000,1.5375000,-0.0012916,-0.0004191,-0.1071864,-0.0012916,-0.0019053,-0.0024172
1.5400000,1.5400000,1.5400000,-0.0012789,-0.0004171,-0.1066602,-0.0012789,-0.0018907,-0.0023903
1.5425000,1.5425000,1.5425000,-0.0012664,-0.0004151,-0.1061374,-0.0012664,-0.0018763,-0.0023638
1.5450000,1.5450000,1.5450000,-0.0012541,-0.0004131,-0.1056180,-0.0012541,-0.0018621,-0.0023375
1.5475000,1.5475000,1.5475000,-0.0012418,-0.0004112,-0.1051021,-0.0012418,-0.0018480,-0.0023116
1.5500000,1.5500000,1.5500000,-0.0012298,-0.0004092,-0.1045895,-0.0012298,-0.0018340,-0.0022860
1.5525000,1.5525000,1.5525000,-0.0012178,-0.0004073,-0.1040802,-0.0012178,-0.0018202,-0.0022607
1.5550000,1.5550000,1.5550000,-0.0012060,-0.0004054,-0.1035742,-0.0012060,-0.0018065,-0.0022356
1.5575000,1.5575000,1.5575000,-0.0011943,-0.0004035,-0.1030716,-0.0011943,-0.0017930,-0.0022109
1.5600000,1.5600000,1.5600000,-0.0011828,-0.0004016,-0.1025721,-0.0011828,-0.0017795,-0.0021865
1.5625000,1.5625000,1.5625000,-0.0011714,-0.0003997,-0.1020759,-0.0011714,-0.0017662,-0.0021624
1.5650000,1.5650000,1.5650000,-0.0011601,-0.0003978,-0.1015830,-0.0011601,-0.0017531,-0.0021385
1.5675000,1.5675000,1.5675000,-0.0011489,-0.0003960,-0.1010931,-0.0011489,-0.0017401,-0.0021149
1.5700000,1.5700000,1.5700000,-0.0011379,-0.0003941,-0.1006065,-0.0011379,-0.0017272,-0.0020916
1.5725000,1.5725000,1.5725000,-0.0011270,-0.0003923,-0.1001230,-0.0011270,-0.0017144,-0.0020686
1.5750000,1.5750000,1.5750000,-0.0011162,-0.0003905,-0.0996425,-0.0011162,-0.0017017,-0.0020459
1.5775000,1.5775000,1.5775000,-0.0011055,-0.0003887,-0.0991652,-0.0011055,-0.0016892,-0.0020234
1.5800000,1.5800000,1.5800000,-0.0010950,-0.0003869,-0.0986909,-0.0010950,-0.0016768,-0.0020012
1.5825000,1.5825000,1.5825000,-0.0010845,-0.0003851,-0.0982196,-0.0010845,-0.0016645,-0.0019792
1.5850000,1.5850000,1.5850000,-0.0010742,-0.0003833,-0.0977513,-0.0010742,-0.0016523,-0.0019575
1.5875000,1.5875000,1.5875000,-0.0010640,-0.0003815,-0.0972860,-0.0010640,-0.0016403,-0.0019361
1.5900000,1.5900000,1.5900000,-0.0010539,-0.0003798,-0.0968237,-0.0010539,-0.0016284,-0.0019149
1.5925000,1.5925000,1.5925000,-0.0010439,-0.0003780,-0.0963642,-0.0010439,-0.0016165,-0.0018940
1.5950000,1.5950000,1.5950000,-0.0010341,-0.0003763,-0.0959077,-0.0010341,-0.0016048,-0.0018733
1.5975000,1.5975000,1.5975000,-0.0010243,-0.0003746,-0.0954541,-0.0010243,-0.0015932,-0.0018528
