# r[nm],d[nm],daligned[nm],U(d)[kj/mol],V(d)[e/nm],Uslab(d)[kJ/mol],UC(d)[kJ/mol],UK(d)[kJ/mol],UCl(d)[kJ/mol]
0.1900000,0.1900000,0.1900000,1851.5958843,-0.1945181,169.5912467,1851.5958843,1174.6072704,inf
0.1925000,0.1925000,0.1925000,1600.0124760,-0.1957622,147.6979949,1600.0124760,1014.3949614,inf
0.1950000,0.1950000,0.1950000,1385.2170040,-0.1968559,128.8546091,1385.2170040,877.7070989,inf
0.1975000,0.1975000,0.1975000,1201.4675532,-0.1976363,112.6049481,1201.4675532,760.8422184,inf
0.2000000,0.2000000,0.2000000,1043.9501537,-0.1981301,98.5658912,1043.9501537,660.7218412,inf
0.2025000,0.2025000,0.2025000,908.6498107,-0.1983622,86.4146292,908.6498107,574.7788165,inf
0.2050000,0.2050000,0.2050000,792.2092152,-0.1983557,75.8784562,792.2092152,500.8668616,inf
0.2075000,0.2075000,0.2075000,691.8139360,-0.1981316,66.7265579,691.8139360,437.1870612,inf
0.2100000,0.2100000,0.2100000,605.0988595,-0.1977097,58.7633497,605.0988595,382.2279733,inf
0.2125000,0.2125000,0.2125000,530.0717304,-0.1971079,51.8229813,530.0717304,334.7166846,inf
0.2150000,0.2150000,0.2150000,465.0504946,-0.1963430,45.7646968,465.0504946,293.5787042,inf
0.2175000,0.2175000,0.2175000,408.6118149,-0.1954305,40.4688402,408.6118149,257.9050096,1699.5148463
0.2200000,0.2200000,0.2200000,359.5486546,-0.1943845,35.8333939,359.5486546,226.9248949,1496.4402930
0.2225000,0.2225000,0.2225000,316.8352441,-0.1932181,31.7710154,316.8352441,199.9835379,1319.3350689
0.2250000,0.2250000,0.2250000,279.5980699,-0.1919436,28.2065677,279.5980699,176.5234048,1164.6467098
0.2275000,0.2275000,0.2275000,247.0917930,-0.1905721,25.0751225,247.0917930,156.0687865,1029.3425499
0.2300000,0.2300000,0.2300000,218.6792074,-0.1891139,22.3203964,218.6792074,138.2128933,910.8285897
0.2325000,0.2325000,0.2325000,193.8145164,-0.1875788,19.8935528,193.8145164,122.6070565,806.8818208
0.2350000,0.2350000,0.2350000,172.0293353,-0.1859761,17.7522870,172.0293353,108.9516833,715.5936433
0.2375000,0.2375000,0.2375000,152.9209386,-0.1843152,15.8600949,152.9209386,96.9886844,635.3224557
0.2400000,0.2400000,0.2400000,136.1423606,-0.1826055,14.1856218,136.1423606,86.4951549,564.6538406
0.2425000,0.2425000,0.2425000,121.3940372,-0.1808569,12.7020007,121.3940372,77.2781274,502.3670594
0.2450000,0.2450000,0.2450000,108.4167423,-0.1790788,11.3861319,108.4167423,69.1702556,447.4067980
0.2475000,0.2475000,0.2475000,96.9856220,-0.1772782,10.2179145,96.9856220,62.0263032,398.8592911
0.2500000,0.2500000,0.2500000,86.9051680,-0.1754573,9.1795058,86.9051680,55.7203189,355.9321082
0.2525000,0.2525000,0.2525000,78.0050060,-0.1736099,8.2547343,78.0050060,50.1433537,317.9370048
0.2550000,0.2550000,0.2550000,70.1363989,-0.1717178,7.4287581,70.1363989,45.2015532,284.2753484
0.2575000,0.2575000,0.2575000,63.1693858,-0.1697507,6.6879677,63.1693858,40.8144524,254.4257081
0.2600000,0.2600000,0.2600000,56.9904738,-0.1676675,6.0200373,56.9904738,36.9133348,227.9332665
0.2625000,0.2625000,0.2625000,51.5007844,-0.1654233,5.4139977,51.5007844,33.4395989,204.4007675
0.2650000,0.2650000,0.2650000,46.6145239,-0.1629774,4.8602436,46.6145239,30.3431521,183.4807590
0.2675000,0.2675000,0.2675000,42.2576312,-0.1603026,4.3504524,42.2576312,27.5809075,164.8689272
0.2700000,0.2700000,0.2700000,38.3664762,-0.1573909,3.8774565,38.3664762,25.1154616,148.2983568
0.2725000,0.2725000,0.2725000,34.8865347,-0.1542535,3.4351536,34.8865347,22.9140001,133.5345766
0.2750000,0.2750000,0.2750000,31.7710426,-0.1509164,3.0185145,31.7710426,20.9474386,120.3712830
0.2775000,0.2775000,0.2775000,28.9796857,-0.1474122,2.6236586,28.9796857,19.1897726,108.6266487
0.2800000,0.2800000,0.2800000,26.4774052,-0.1437719,2.2478895,26.4774052,17.6176029,98.1401420
0.2825000,0.2825000,0.2825000,24.2333771,-0.1400189,1.8895864,24.2333771,16.2097995,88.7697929
0.2850000,0.2850000,0.2850000,22.2201937,-0.1361655,1.5479446,22.2201937,14.9472745,80.3898498
0.2875000,0.2875000,0.2875000,20.4132400,-0.1322142,1.2226470,20.4132400,13.8128363,72.8887840
0.2900000,0.2900000,0.2900000,18.7902423,-0.1281609,0.9135704,18.7902423,12.7910947,66.1676049
0.2925000,0.2925000,0.2925000,17.3309593,-0.1240012,0.6205841,17.3309593,11.8683867,60.1384553
0.2950000,0.2950000,0.2950000,16.0169867,-0.1197364,0.3434402,16.0169867,11.0326942,54.7234498
0.2975000,0.2975000,0.2975000,14.8316462,-0.1153798,0.0817191,14.8316462,10.2735391,49.8537124
0.3000000,0.3000000,0.3000000,13.7599267,-0.1109601,-0.1651988,13.7599267,9.5818479,45.4685532
0.3025000,0.3025000,0.3025000,12.7884446,-0.1065228,-0.3981465,12.7884446,8.9497972,41.5147224
0.3050000,0.3050000,0.3050000,11.9053934,-0.1021270,-0.6181524,11.9053934,8.3706507,37.9456824
0.3075000,0.3075000,0.3075000,11.1004630,-0.0978414,-0.8263733,11.1004630,7.8386015,34.7208641
0.3100000,0.3100000,0.3100000,10.3647214,-0.0937368,-1.0239827,10.3647214,7.3486288,31.8048999
0.3125000,0.3125000,0.3125000,9.6904674,-0.0898807,-1.2120445,9.6904674,6.8963704,29.1668527
0.3150000,0.3150000,0.3150000,9.0710689,-0.0863312,-1.3914173,9.0710689,6.4780117,26.7794755
0.3175000,0.3175000,0.3175000,8.5008029,-0.0831336,-1.5627145,8.5008029,6.0901902,24.6185372
0.3200000,0.3200000,0.3200000,7.9747083,-0.0803189,-1.7263207,7.9747083,5.7299136,22.6622441
0.3225000,0.3225000,0.3225000,7.4884579,-0.0779026,-1.8824395,7.4884579,5.3944927,20.8907728
0.3250000,0.3250000,0.3250000,7.0382493,-0.0758851,-2.0311486,7.0382493,5.0814886,19.2859213
0.3275000,0.3275000,0.3275000,6.6207110,-0.0742523,-2.1724421,6.6207110,4.7886751,17.8308752
0.3300000,0.3300000,0.3300000,6.2328223,-0.0729755,-2.3062599,6.2328223,4.5140183,16.5100780
0.3325000,0.3325000,0.3325000,5.8718440,-0.0720120,-2.4325078,5.8718440,4.2556743,15.3091850
0.3350000,0.3350000,0.3350000,5.5352604,-0.0713062,-2.5510763,5.5352604,4.0119996,14.2150729
0.3375000,0.3375000,0.3375000,5.2207366,-0.0707911,-2.6618614,5.2207366,3.7815652,13.2158732
0.3400000,0.3400000,0.3400000,4.9260940,-0.0703923,-2.7647853,4.9260940,3.5631590,12.3009963
0.3425000,0.3425000,0.3425000,4.6493087,-0.0700335,-2.8598203,4.6493087,3.3557601,11.4611226
0.3450000,0.3450000,0.3450000,4.3885301,-0.0696432,-2.9470194,4.3885301,3.1584814,10.6881477
0.3475000,0.3475000,0.3475000,4.1421085,-0.0691633,-3.0265626,4.1421085,2.9704921,9.9750835
0.3500000,0.3500000,0.3500000,3.9086194,-0.0685563,-3.0988117,3.9086194,2.7909443,9.3159289
0.3525000,0.3525000,0.3525000,3.6868646,-0.0678118,-3.1643481,3.6868646,2.6189325,8.7055254
0.3550000,0.3550000,0.3550000,3.4758435,-0.0669501,-3.2239606,3.4758435,2.4535026,8.1394162
0.3575000,0.3575000,0.3575000,3.2746985,-0.0660220,-3.2785694,3.2746985,2.2937077,7.6137196
0.3600000,0.3600000,0.3600000,3.0826485,-0.0651038,-3.3291020,3.0826485,2.1386919,7.1250212
0.3625000,0.3625000,0.3625000,2.8989341,-0.0642869,-3.3763588,2.8989341,1.9877748,6.6702836
0.3650000,0.3650000,0.3650000,2.7227898,-0.0636640,-3.4209072,2.7227898,1.8405102,6.2467693
0.3675000,0.3675000,0.3675000,2.5534513,-0.0633145,-3.4630287,2.5534513,1.6967081,5.8519742
0.3700000,0.3700000,0.3700000,2.3901899,-0.0632919,-3.5027197,2.3901899,1.5564151,5.4835679
0.3725000,0.3725000,0.3725000,2.2323615,-0.0636158,-3.5397393,2.2323615,1.4198672,5.1393475
0.3750000,0.3750000,0.3750000,2.0794529,-0.0642707,-3.5736833,2.0794529,1.2874239,4.8172082
0.3775000,0.3775000,0.3775000,1.9311110,-0.0652105,-3.6040669,1.9311110,1.1595006,4.5151362
0.3800000,0.3800000,0.3800000,1.7871511,-0.0663665,-3.6304006,1.7871511,1.0365071,4.2312234
0.3825000,0.3825000,0.3825000,1.6475412,-0.0676578,-3.6522509,1.6475412,0.9187990,3.9636961
0.3850000,0.3850000,0.3850000,1.5123715,-0.0690005,-3.6692802,1.5123715,0.8066463,3.7109464
0.3875000,0.3875000,0.3875000,1.3818128,-0.0703170,-3.6812683,1.3818128,0.7002189,3.4715528
0.3900000,0.3900000,0.3900000,1.2560750,-0.0715410,-3.6881165,1.2560750,0.5995874,3.2442823
0.3925000,0.3925000,0.3925000,1.1353681,-0.0726217,-3.6898415,1.1353681,0.5047349,3.0280727
0.3950000,0.3950000,0.3950000,1.0198731,-0.0735244,-3.6865599,1.0198731,0.4155760,2.8220023
0.3975000,0.3975000,0.3975000,0.9097219,-0.0742300,-3.6784707,0.9097219,0.3319777,2.6252552
0.4000000,0.4000000,0.4000000,0.8049888,-0.0747322,-3.6658356,0.8049888,0.2537814,2.4370942
0.4025000,0.4025000,0.4025000,0.7056899,-0.0750342,-3.6489607,0.7056899,0.1808203,2.2568447
0.4050000,0.4050000,0.4050000,0.6117887,-0.0751448,-3.6281803,0.6117887,0.1129317,2.0838934
0.4075000,0.4075000,0.4075000,0.5232077,-0.0750762,-3.6038433,0.5232077,0.0499565,1.9176958
0.4100000,0.4100000,0.4100000,0.4398403,-0.0748411,-3.5763017,0.4398403,-0.0082773,1.7577890
0.4125000,0.4125000,0.4125000,0.3615638,-0.0744517,-3.5459022,0.3615638,-0.0619901,1.6038020
0.4150000,0.4150000,0.4150000,0.2882477,-0.0739194,-3.5129799,0.2882477,-0.1114962,1.4554610
0.4175000,0.4175000,0.4175000,0.2197514,-0.0732537,-3.4778534,0.2197514,-0.1572425,1.3125852
0.4200000,0.4200000,0.4200000,0.1559070,-0.0724615,-3.4408223,0.1559070,-0.1998175,1.1750756
0.4225000,0.4225000,0.4225000,0.0964866,-0.0715446,-3.4021653,0.0964866,-0.2399178,1.0428976
0.4250000,0.4250000,0.4250000,0.0411613,-0.0704971,-3.3621394,0.0411613,-0.2782750,0.9160605
0.4275000,0.4275000,0.4275000,-0.0105291,-0.0693041,-3.3209797,-0.0105291,-0.3155612,0.7945970
0.4300000,0.4300000,0.4300000,-0.0591780,-0.0679423,-3.2789004,-0.0591780,-0.3522998,0.6785448
0.4325000,0.4325000,0.4325000,-0.1054757,-0.0663833,-3.2360949,-0.1054757,-0.3888034,0.5679320
0.4350000,0.4350000,0.4350000,-0.1501377,-0.0645994,-3.1927374,-0.1501377,-0.4251511,0.4627673
0.4375000,0.4375000,0.4375000,-0.1938162,-0.0625709,-3.1489842,-0.1938162,-0.4612048,0.3630344
0.4400000,0.4400000,0.4400000,-0.2370166,-0.0602915,-3.1049744,-0.2370166,-0.4966547,0.2686908
0.4425000,0.4425000,0.4425000,-0.2800381,-0.0577720,-3.0608318,-0.2800381,-0.5310799,0.1796693
0.4450000,0.4450000,0.4450000,-0.3229514,-0.0550409,-3.0166660,-0.3229514,-0.5640124,0.0958804
0.4475000,0.4475000,0.4475000,-0.3656111,-0.0521412,-2.9725736,-0.3656111,-0.5949926,0.0172108
0.4500000,0.4500000,0.4500000,-0.4076973,-0.0491264,-2.9286395,-0.4076973,-0.6236120,-0.0564840
0.4525000,0.4525000,0.4525000,-0.4487728,-0.0460547,-2.8849377,-0.4487728,-0.6495409,-0.1253966
0.4550000,0.4550000,0.4550000,-0.4883449,-0.0429842,-2.8415331,-0.4883449,-0.6725422,-0.1897902
0.4575000,0.4575000,0.4575000,-0.5259212,-0.0399679,-2.7984815,-0.5259212,-0.6924734,-0.2500204
0.4600000,0.4600000,0.4600000,-0.5610545,-0.0370514,-2.7558313,-0.5610545,-0.7092809,-0.3065444
0.4625000,0.4625000,0.4625000,-0.5933729,-0.0342711,-2.7136237,-0.5933729,-0.7229885,-0.3599106
0.4650000,0.4650000,0.4650000,-0.6225966,-0.0316537,-2.6718941,-0.6225966,-0.7336843,-0.4107255
0.4675000,0.4675000,0.4675000,-0.6485424,-0.0292166,-2.6306719,-0.6485424,-0.7415057,-0.4596015
0.4700000,0.4700000,0.4700000,-0.6711205,-0.0269694,-2.5899821,-0.6711205,-0.7466263,-0.5070960
0.4725000,0.4725000,0.4725000,-0.6903245,-0.0249148,-2.5498449,-0.6903245,-0.7492436,-0.5536549
0.4750000,0.4750000,0.4750000,-0.7062182,-0.0230499,-2.5102770,-0.7062182,-0.7495689,-0.5995699
0.4775000,0.4775000,0.4775000,-0.7189223,-0.0213683,-2.4712913,-0.7189223,-0.7478187,-0.6449568
0.4800000,0.4800000,0.4800000,-0.7285996,-0.0198602,-2.4328981,-0.7285996,-0.7442082,-0.6897578
0.4825000,0.4825000,0.4825000,-0.7354432,-0.0185144,-2.3951047,-0.7354432,-0.7389469,-0.7337637
0.4850000,0.4850000,0.4850000,-0.7396651,-0.0173185,-2.3579161,-0.7396651,-0.7322343,-0.7766499
0.4875000,0.4875000,0.4875000,-0.7414870,-0.0162596,-2.3213354,-0.7414870,-0.7242586,-0.8180208
0.4900000,0.4900000,0.4900000,-0.7411330,-0.0153252,-2.2853636,-0.7411330,-0.7151943,-0.8574536
0.4925000,0.4925000,0.4925000,-0.7388243,-0.0145027,-2.2500004,-0.7388243,-0.7052024,-0.8945374
0.4950000,0.4950000,0.4950000,-0.7347744,-0.0137805,-2.2152438,-0.7347744,-0.6944295,-0.9289043
0.4975000,0.4975000,0.4975000,-0.7291866,-0.0131476,-2.1810910,-0.7291866,-0.6830087,-0.9602501
0.5000000,0.5000000,0.5000000,-0.7222519,-0.0125940,-2.1475378,-0.7222519,-0.6710597,-0.9883463
0.5025000,0.5025000,0.5025000,-0.7141479,-0.0121102,-2.1145791,-0.7141479,-0.6586896,-1.0130438
0.5050000,0.5050000,0.5050000,-0.7050382,-0.0116879,-2.0822093,-0.7050382,-0.6459938,-1.0342703
0.5075000,0.5075000,0.5075000,-0.6950725,-0.0113195,-2.0504218,-0.6950725,-0.6330569,-1.0520238
0.5100000,0.5100000,0.5100000,-0.6843867,-0.0109981,-2.0192098,-0.6843867,-0.6199534,-1.0663625
0.5125000,0.5125000,0.5125000,-0.6731037,-0.0107178,-1.9885656,-0.6731037,-0.6067487,-1.0773950
0.5150000,0.5150000,0.5150000,-0.6613338,-0.0104730,-1.9584814,-0.6613338,-0.5935000,-1.0852688
0.5175000,0.5175000,0.5175000,-0.6491758,-0.0102590,-1.9289490,-0.6491758,-0.5802572,-1.0901608
0.5200000,0.5200000,0.5200000,-0.6367175,-0.0100716,-1.8999598,-0.6367175,-0.5670632,-1.0922678
0.5225000,0.5225000,0.5225000,-0.6240369,-0.0099071,-1.8715053,-0.6240369,-0.5539551,-1.0917988
0.5250000,0.5250000,0.5250000,-0.6112027,-0.0097621,-1.8435766,-0.6112027,-0.5409648,-1.0889683
0.5275000,0.5275000,0.5275000,-0.5982756,-0.0096340,-1.8161646,-0.5982756,-0.5281192,-1.0839912
0.5300000,0.5300000,0.5300000,-0.5853085,-0.0095201,-1.7892603,-0.5853085,-0.5154412,-1.0770784
0.5325000,0.5325000,0.5325000,-0.5723478,-0.0094182,-1.7628546,-0.5723478,-0.5029497,-1.0684340
0.5350000,0.5350000,0.5350000,-0.5594336,-0.0093266,-1.7369384,-0.5594336,-0.4906607,-1.0582527
0.5375000,0.5375000,0.5375000,-0.5466007,-0.0092436,-1.7115025,-0.5466007,-0.4785869,-1.0467186
0.5400000,0.5400000,0.5400000,-0.5338788,-0.0091677,-1.6865378,-0.5338788,-0.4667388,-1.0340037
0.5425000,0.5425000,0.5425000,-0.5212936,-0.0090977,-1.6620354,-0.5212936,-0.4551244,-1.0202681
0.5450000,0.5450000,0.5450000,-0.5088667,-0.0090326,-1.6379861,-0.5088667,-0.4437499,-1.0056595
0.5475000,0.5475000,0.5475000,-0.4966162,-0.0089715,-1.6143810,-0.4966162,-0.4326197,-0.9903131
0.5500000,0.5500000,0.5500000,-0.4845574,-0.0089135,-1.5912115,-0.4845574,-0.4217369,-0.9743527
0.5525000,0.5525000,0.5525000,-0.4727028,-0.0088581,-1.5684686,-0.4727028,-0.4111032,-0.9578905
0.5550000,0.5550000,0.5550000,-0.4610624,-0.0088047,-1.5461439,-0.4610624,-0.4007190,-0.9410278
0.5575000,0.5575000,0.5575000,-0.4496443,-0.0087528,-1.5242288,-0.4496443,-0.3905841,-0.9238562
0.5600000,0.5600000,0.5600000,-0.4384548,-0.0087019,-1.5027150,-0.4384548,-0.3806972,-0.9064575
0.5625000,0.5625000,0.5625000,-0.4274984,-0.0086518,-1.4815941,-0.4274984,-0.3710564,-0.8889049
0.5650000,0.5650000,0.5650000,-0.4167784,-0.0086022,-1.4608582,-0.4167784,-0.3616592,-0.8712637
0.5675000,0.5675000,0.5675000,-0.4062966,-0.0085528,-1.4404992,-0.4062966,-0.3525026,-0.8535916
0.5700000,0.5700000,0.5700000,-0.3960541,-0.0085034,-1.4205094,-0.3960541,-0.3435832,-0.8359396
0.5725000,0.5725000,0.5725000,-0.3860508,-0.0084540,-1.4008809,-0.3860508,-0.3348971,-0.8183528
0.5750000,0.5750000,0.5750000,-0.3762858,-0.0084043,-1.3816064,-0.3762858,-0.3264403,-0.8008704
0.5775000,0.5775000,0.5775000,-0.3667578,-0.0083543,-1.3626784,-0.3667578,-0.3182085,-0.7835267
0.5800000,0.5800000,0.5800000,-0.3574646,-0.0083039,-1.3440896,-0.3574646,-0.3101971,-0.7663514
0.5825000,0.5825000,0.5825000,-0.3484037,-0.0082531,-1.3258330,-0.3484037,-0.3024016,-0.7493701
0.5850000,0.5850000,0.5850000,-0.3395719,-0.0082017,-1.3079015,-0.3395719,-0.2948172,-0.7326049
0.5875000,0.5875000,0.5875000,-0.3309661,-0.0081499,-1.2902885,-0.3309661,-0.2874391,-0.7160742
0.5900000,0.5900000,0.5900000,-0.3225824,-0.0080975,-1.2729871,-0.3225824,-0.2802625,-0.6997938
0.5925000,0.5925000,0.5925000,-0.3144171,-0.0080446,-1.2559908,-0.3144171,-0.2732823,-0.6837766
0.5950000,0.5950000,0.5950000,-0.3064660,-0.0079912,-1.2392934,-0.3064660,-0.2664938,-0.6680334
0.5975000,0.5975000,0.5975000,-0.2987248,-0.0079373,-1.2228884,-0.2987248,-0.2598921,-0.6525726
0.6000000,0.6000000,0.6000000,-0.2911893,-0.0078829,-1.2067699,-0.2911893,-0.2534723,-0.6374009
0.6025000,0.6025000,0.6025000,-0.2838549,-0.0078281,-1.1909317,-0.2838549,-0.2472296,-0.6225234
0.6050000,0.6050000,0.6050000,-0.2767171,-0.0077728,-1.1753681,-0.2767171,-0.2411594,-0.6079436
0.6075000,0.6075000,0.6075000,-0.2697714,-0.0077171,-1.1600733,-0.2697714,-0.2352569,-0.5936637
0.6100000,0.6100000,0.6100000,-0.2630132,-0.0076610,-1.1450418,-0.2630132,-0.2295175,-0.5796849
0.6125000,0.6125000,0.6125000,-0.2564380,-0.0076046,-1.1302680,-0.2564380,-0.2239368,-0.5660074
0.6150000,0.6150000,0.6150000,-0.2500410,-0.0075479,-1.1157467,-0.2500410,-0.2185102,-0.5526303
0.6175000,0.6175000,0.6175000,-0.2438180,-0.0074909,-1.1014726,-0.2438180,-0.2132335,-0.5395521
0.6200000,0.6200000,0.6200000,-0.2377643,-0.0074336,-1.0874405,-0.2377643,-0.2081023,-0.5267708
0.6225000,0.6225000,0.6225000,-0.2318756,-0.0073762,-1.0736456,-0.2318756,-0.2031126,-0.5142835
0.6250000,0.6250000,0.6250000,-0.2261474,-0.0073186,-1.0600829,-0.2261474,-0.1982602,-0.5020870
0.6275000,0.6275000,0.6275000,-0.2205755,-0.0072608,-1.0467477,-0.2205755,-0.1935413,-0.4901777
0.6300000,0.6300000,0.6300000,-0.2151556,-0.0072030,-1.0336353,-0.2151556,-0.1889518,-0.4785516
0.6325000,0.6325000,0.6325000,-0.2098836,-0.0071451,-1.0207411,-0.2098836,-0.1844881,-0.4672042
0.6350000,0.6350000,0.6350000,-0.2047554,-0.0070871,-1.0080608,-0.2047554,-0.1801465,-0.4561312
0.6375000,0.6375000,0.6375000,-0.1997669,-0.0070291,-0.9955899,-0.1997669,-0.1759235,-0.4453276
0.6400000,0.6400000,0.6400000,-0.1949144,-0.0069712,-0.9833244,-0.1949144,-0.1718154,-0.4347886
0.6425000,0.6425000,0.6425000,-0.1901940,-0.0069133,-0.9712599,-0.1901940,-0.1678190,-0.4245092
0.6450000,0.6450000,0.6450000,-0.1856020,-0.0068555,-0.9593924,-0.1856020,-0.1639310,-0.4144840
0.6475000,0.6475000,0.6475000,-0.1811346,-0.0067977,-0.9477181,-0.1811346,-0.1601482,-0.4047080
0.6500000,0.6500000,0.6500000,-0.1767884,-0.0067401,-0.9362329,-0.1767884,-0.1564674,-0.3951758
0.6525000,0.6525000,0.6525000,-0.1725599,-0.0066827,-0.9249333,-0.1725599,-0.1528857,-0.3858821
0.6550000,0.6550000,0.6550000,-0.1684458,-0.0066254,-0.9138153,-0.1684458,-0.1494002,-0.3768216
0.6575000,0.6575000,0.6575000,-0.1644427,-0.0065683,-0.9028756,-0.1644427,-0.1460080,-0.3679890
0.6600000,0.6600000,0.6600000,-0.1605474,-0.0065115,-0.8921105,-0.1605474,-0.1427063,-0.3593790
0.6625000,0.6625000,0.6625000,-0.1567569,-0.0064548,-0.8815165,-0.1567569,-0.1394925,-0.3509865
0.6650000,0.6650000,0.6650000,-0.1530681,-0.0063984,-0.8710904,-0.1530681,-0.1363641,-0.3428060
0.6675000,0.6675000,0.6675000,-0.1494781,-0.0063423,-0.8608289,-0.1494781,-0.1333184,-0.3348327
0.6700000,0.6700000,0.6700000,-0.1459840,-0.0062865,-0.8507286,-0.1459840,-0.1303530,-0.3270613
0.6725000,0.6725000,0.6725000,-0.1425830,-0.0062309,-0.8407866,-0.1425830,-0.1274657,-0.3194868
0.6750000,0.6750000,0.6750000,-0.1392725,-0.0061757,-0.8309997,-0.1392725,-0.1246540,-0.3121044
0.6775000,0.6775000,0.6775000,-0.1360499,-0.0061208,-0.8213648,-0.1360499,-0.1219159,-0.3049091
0.6800000,0.6800000,0.6800000,-0.1329125,-0.0060662,-0.8118792,-0.1329125,-0.1192490,-0.2978963
0.6825000,0.6825000,0.6825000,-0.1298580,-0.0060119,-0.8025399,-0.1298580,-0.1166515,-0.2910612
0.6850000,0.6850000,0.6850000,-0.1268839,-0.0059580,-0.7933442,-0.1268839,-0.1141211,-0.2843993
0.6875000,0.6875000,0.6875000,-0.1239879,-0.0059045,-0.7842892,-0.1239879,-0.1116560,-0.2779061
0.6900000,0.6900000,0.6900000,-0.1211677,-0.0058514,-0.7753723,-0.1211677,-0.1092544,-0.2715771
0.6925000,0.6925000,0.6925000,-0.1184212,-0.0057986,-0.7665909,-0.1184212,-0.1069142,-0.2654081
0.6950000,0.6950000,0.6950000,-0.1157463,-0.0057462,-0.7579424,-0.1157463,-0.1046338,-0.2593949
0.6975000,0.6975000,0.6975000,-0.1131408,-0.0056943,-0.7494244,-0.1131408,-0.1024115,-0.2535334
0.7000000,0.7000000,0.7000000,-0.1106029,-0.0056427,-0.7410343,-0.1106029,-0.1002455,-0.2478195
0.7025000,0.7025000,0.7025000,-0.1081304,-0.0055915,-0.7327699,-0.1081304,-0.0981343,-0.2422493
0.7050000,0.7050000,0.7050000,-0.1057217,-0.0055407,-0.7246287,-0.1057217,-0.0960762,-0.2368191
0.7075000,0.7075000,0.7075000,-0.1033748,-0.0054904,-0.7166084,-0.1033748,-0.0940698,-0.2315251
0.7100000,0.7100000,0.7100000,-0.1010879,-0.0054405,-0.7087069,-0.1010879,-0.0921136,-0.2263636
0.7125000,0.7125000,0.7125000,-0.0988595,-0.0053909,-0.7009219,-0.0988595,-0.0902062,-0.2213312
0.7150000,0.7150000,0.7150000,-0.0966877,-0.0053419,-0.6932513,-0.0966877,-0.0883461,-0.2164243
0.7175000,0.7175000,0.7175000,-0.0945711,-0.0052932,-0.6856930,-0.0945711,-0.0865320,-0.2116396
0.7200000,0.7200000,0.7200000,-0.0925080,-0.0052450,-0.6782449,-0.0925080,-0.0847627,-0.2069739
0.7225000,0.7225000,0.7225000,-0.0904969,-0.0051972,-0.6709051,-0.0904969,-0.0830369,-0.2024239
0.7250000,0.7250000,0.7250000,-0.0885364,-0.0051498,-0.6636715,-0.0885364,-0.0813533,-0.1979865
0.7275000,0.7275000,0.7275000,-0.0866250,-0.0051029,-0.6565424,-0.0866250,-0.0797108,-0.1936588
0.7300000,0.7300000,0.7300000,-0.0847614,-0.0050564,-0.6495157,-0.0847614,-0.0781082,-0.1894378
0.7325000,0.7325000,0.7325000,-0.0829442,-0.0050103,-0.6425896,-0.0829442,-0.0765445,-0.1853205
0.7350000,0.7350000,0.7350000,-0.0811721,-0.0049647,-0.6357624,-0.0811721,-0.0750185,-0.1813043
0.7375000,0.7375000,0.7375000,-0.0794439,-0.0049195,-0.6290322,-0.0794439,-0.0735292,-0.1773865
0.7400000,0.7400000,0.7400000,-0.0777583,-0.0048747,-0.6223974,-0.0777583,-0.0720755,-0.1735643
0.7425000,0.7425000,0.7425000,-0.0761142,-0.0048303,-0.6158563,-0.0761142,-0.0706566,-0.1698353
0.7450000,0.7450000,0.7450000,-0.0745104,-0.0047864,-0.6094072,-0.0745104,-0.0692714,-0.1661970
0.7475000,0.7475000,0.7475000,-0.0729457,-0.0047430,-0.6030485,-0.0729457,-0.0679191,-0.1626469
0.7500000,0.7500000,0.7500000,-0.0714192,-0.0046999,-0.5967786,-0.0714192,-0.0665987,-0.1591826
0.7525000,0.7525000,0.7525000,-0.0699298,-0.0046573,-0.5905960,-0.0699298,-0.0653094,-0.1558020
0.7550000,0.7550000,0.7550000,-0.0684764,-0.0046151,-0.5844991,-0.0684764,-0.0640503,-0.1525028
0.7575000,0.7575000,0.7575000,-0.0670581,-0.0045733,-0.5784865,-0.0670581,-0.0628206,-0.1492827
0.7600000,0.7600000,0.7600000,-0.0656740,-0.0045319,-0.5725567,-0.0656740,-0.0616195,-0.1461398
0.7625000,0.7625000,0.7625000,-0.0643230,-0.0044910,-0.5667083,-0.0643230,-0.0604463,-0.1430720
0.7650000,0.7650000,0.7650000,-0.0630043,-0.0044504,-0.5609398,-0.0630043,-0.0593002,-0.1400772
0.7675000,0.7675000,0.7675000,-0.0617170,-0.0044103,-0.5552500,-0.0617170,-0.0581804,-0.1371536
0.7700000,0.7700000,0.7700000,-0.0604603,-0.0043706,-0.5496374,-0.0604603,-0.0570864,-0.1342993
0.7725000,0.7725000,0.7725000,-0.0592333,-0.0043313,-0.5441008,-0.0592333,-0.0560174,-0.1315125
0.7750000,0.7750000,0.7750000,-0.0580353,-0.0042924,-0.5386389,-0.0580353,-0.0549727,-0.1287913
0.7775000,0.7775000,0.7775000,-0.0568655,-0.0042539,-0.5332504,-0.0568655,-0.0539517,-0.1261342
0.7800000,0.7800000,0.7800000,-0.0557231,-0.0042158,-0.5279341,-0.0557231,-0.0529538,-0.1235393
0.7825000,0.7825000,0.7825000,-0.0546074,-0.0041781,-0.5226887,-0.0546074,-0.0519784,-0.1210051
0.7850000,0.7850000,0.7850000,-0.0535176,-0.0041408,-0.5175131,-0.0535176,-0.0510249,-0.1185300
0.7875000,0.7875000,0.7875000,-0.0524532,-0.0041038,-0.5124062,-0.0524532,-0.0500926,-0.1161124
0.7900000,0.7900000,0.7900000,-0.0514135,-0.0040673,-0.5073667,-0.0514135,-0.0491812,-0.1137510
0.7925000,0.7925000,0.7925000,-0.0503977,-0.0040311,-0.5023936,-0.0503977,-0.0482900,-0.1114441
0.7950000,0.7950000,0.7950000,-0.0494053,-0.0039954,-0.4974857,-0.0494053,-0.0474185,-0.1091905
0.7975000,0.7975000,0.7975000,-0.0484356,-0.0039600,-0.4926421,-0.0484356,-0.0465663,-0.1069887
0.8000000,0.8000000,0.8000000,-0.0474881,-0.0039249,-0.4878616,-0.0474881,-0.0457327,-0.1048374
0.8025000,0.8025000,0.8025000,-0.0465622,-0.0038903,-0.4831432,-0.0465622,-0.0449174,-0.1027353
0.8050000,0.8050000,0.8050000,-0.0456574,-0.0038560,-0.4784860,-0.0456574,-0.0441199,-0.1006811
0.8075000,0.8075000,0.8075000,-0.0447730,-0.0038220,-0.4738888,-0.0447730,-0.0433397,-0.0986737
0.8100000,0.8100000,0.8100000,-0.0439085,-0.0037885,-0.4693508,-0.0439085,-0.0425764,-0.0967118
0.8125000,0.8125000,0.8125000,-0.0430636,-0.0037552,-0.4648710,-0.0430636,-0.0418295,-0.0947943
0.8150000,0.8150000,0.8150000,-0.0422375,-0.0037224,-0.4604484,-0.0422375,-0.0410987,-0.0929201
0.8175000,0.8175000,0.8175000,-0.0414299,-0.0036899,-0.4560822,-0.0414299,-0.0403836,-0.0910880
0.8200000,0.8200000,0.8200000,-0.0406404,-0.0036577,-0.4517714,-0.0406404,-0.0396837,-0.0892970
0.8225000,0.8225000,0.8225000,-0.0398683,-0.0036258,-0.4475151,-0.0398683,-0.0389987,-0.0875461
0.8250000,0.8250000,0.8250000,-0.0391134,-0.0035944,-0.4433126,-0.0391134,-0.0383282,-0.0858343
0.8275000,0.8275000,0.8275000,-0.0383751,-0.0035632,-0.4391629,-0.0383751,-0.0376719,-0.0841605
0.8300000,0.8300000,0.8300000,-0.0376531,-0.0035324,-0.4350652,-0.0376531,-0.0370294,-0.0825239
0.8325000,0.8325000,0.8325000,-0.0369469,-0.0035018,-0.4310187,-0.0369469,-0.0364004,-0.0809234
0.8350000,0.8350000,0.8350000,-0.0362562,-0.0034717,-0.4270226,-0.0362562,-0.0357845,-0.0793583
0.8375000,0.8375000,0.8375000,-0.0355805,-0.0034418,-0.4230761,-0.0355805,-0.0351814,-0.0778276
0.8400000,0.8400000,0.8400000,-0.0349195,-0.0034123,-0.4191785,-0.0349195,-0.0345909,-0.0763305
0.8425000,0.8425000,0.8425000,-0.0342729,-0.0033830,-0.4153289,-0.0342729,-0.0340125,-0.0748661
0.8450000,0.8450000,0.8450000,-0.0336402,-0.0033541,-0.4115267,-0.0336402,-0.0334461,-0.0734337
0.8475000,0.8475000,0.8475000,-0.0330211,-0.0033255,-0.4077710,-0.0330211,-0.0328913,-0.0720325
0.8500000,0.8500000,0.8500000,-0.0324153,-0.0032972,-0.4040613,-0.0324153,-0.0323478,-0.0706616
0.8525000,0.8525000,0.8525000,-0.0318225,-0.0032692,-0.4003967,-0.0318225,-0.0318154,-0.0693205
0.8550000,0.8550000,0.8550000,-0.0312423,-0.0032415,-0.3967766,-0.0312423,-0.0312938,-0.0680082
0.8575000,0.8575000,0.8575000,-0.0306745,-0.0032140,-0.3932004,-0.0306745,-0.0307828,-0.0667242
0.8600000,0.8600000,0.8600000,-0.0301187,-0.0031869,-0.3896673,-0.0301187,-0.0302821,-0.0654677
0.8625000,0.8625000,0.8625000,-0.0295747,-0.0031601,-0.3861767,-0.0295747,-0.0297915,-0.0642382
0.8650000,0.8650000,0.8650000,-0.0290421,-0.0031335,-0.3827280,-0.0290421,-0.0293107,-0.0630348
0.8675000,0.8675000,0.8675000,-0.0285207,-0.0031072,-0.3793205,-0.0285207,-0.0288395,-0.0618571
0.8700000,0.8700000,0.8700000,-0.0280103,-0.0030812,-0.3759536,-0.0280103,-0.0283776,-0.0607044
0.8725000,0.8725000,0.8725000,-0.0275105,-0.0030555,-0.3726268,-0.0275105,-0.0279250,-0.0595760
0.8750000,0.8750000,0.8750000,-0.0270211,-0.0030300,-0.3693393,-0.0270211,-0.0274812,-0.0584715
0.8775000,0.8775000,0.8775000,-0.0265419,-0.0030048,-0.3660907,-0.0265419,-0.0270462,-0.0573902
0.8800000,0.8800000,0.8800000,-0.0260726,-0.0029799,-0.3628803,-0.0260726,-0.0266198,-0.0563317
0.8825000,0.8825000,0.8825000,-0.0256130,-0.0029552,-0.3597076,-0.0256130,-0.0262017,-0.0552952
0.8850000,0.8850000,0.8850000,-0.0251628,-0.0029308,-0.3565720,-0.0251628,-0.0257917,-0.0542805
0.8875000,0.8875000,0.8875000,-0.0247219,-0.0029067,-0.3534731,-0.0247219,-0.0253897,-0.0532868
0.8900000,0.8900000,0.8900000,-0.0242900,-0.0028828,-0.3504101,-0.0242900,-0.0249954,-0.0523138
0.8925000,0.8925000,0.8925000,-0.0238669,-0.0028591,-0.3473827,-0.0238669,-0.0246088,-0.0513609
0.8950000,0.8950000,0.8950000,-0.0234524,-0.0028357,-0.3443904,-0.0234524,-0.0242296,-0.0504278
0.8975000,0.8975000,0.8975000,-0.0230463,-0.0028125,-0.3414325,-0.0230463,-0.0238577,-0.0495138
0.9000000,0.9000000,0.9000000,-0.0226485,-0.0027896,-0.3385086,-0.0226485,-0.0234929,-0.0486186
0.9025000,0.9025000,0.9025000,-0.0222586,-0.0027669,-0.3356182,-0.0222586,-0.0231350,-0.0477418
0.9050000,0.9050000,0.9050000,-0.0218766,-0.0027445,-0.3327609,-0.0218766,-0.0227839,-0.0468829
0.9075000,0.9075000,0.9075000,-0.0215022,-0.0027223,-0.3299361,-0.0215022,-0.0224395,-0.0460414
0.9100000,0.9100000,0.9100000,-0.0211354,-0.0027003,-0.3271435,-0.0211354,-0.0221015,-0.0452171
0.9125000,0.9125000,0.9125000,-0.0207758,-0.0026785,-0.3243824,-0.0207758,-0.0217699,-0.0444095
0.9150000,0.9150000,0.9150000,-0.0204234,-0.0026570,-0.3216526,-0.0204234,-0.0214445,-0.0436182
0.9175000,0.9175000,0.9175000,-0.0200779,-0.0026357,-0.3189535,-0.0200779,-0.0211251,-0.0428429
0.9200000,0.9200000,0.9200000,-0.0197393,-0.0026146,-0.3162847,-0.0197393,-0.0208117,-0.0420832
0.9225000,0.9225000,0.9225000,-0.0194074,-0.0025937,-0.3136458,-0.0194074,-0.0205041,-0.0413387
0.9250000,0.9250000,0.9250000,-0.0190819,-0.0025731,-0.3110363,-0.0190819,-0.0202022,-0.0406091
0.9275000,0.9275000,0.9275000,-0.0187629,-0.0025526,-0.3084559,-0.0187629,-0.0199058,-0.0398941
0.9300000,0.9300000,0.9300000,-0.0184500,-0.0025324,-0.3059042,-0.0184500,-0.0196149,-0.0391933
0.9325000,0.9325000,0.9325000,-0.0181433,-0.0025123,-0.3033807,-0.0181433,-0.0193293,-0.0385064
0.9350000,0.9350000,0.9350000,-0.0178425,-0.0024925,-0.3008851,-0.0178425,-0.0190489,-0.0378331
0.9375000,0.9375000,0.9375000,-0.0175476,-0.0024729,-0.2984169,-0.0175476,-0.0187735,-0.0371731
0.9400000,0.9400000,0.9400000,-0.0172583,-0.0024534,-0.2959758,-0.0172583,-0.0185032,-0.0365261
0.9425000,0.9425000,0.9425000,-0.0169746,-0.0024342,-0.2935615,-0.0169746,-0.0182378,-0.0358919
0.9450000,0.9450000,0.9450000,-0.0166964,-0.0024152,-0.2911735,-0.0166964,-0.0179771,-0.0352700
0.9475000,0.9475000,0.9475000,-0.0164234,-0.0023963,-0.2888115,-0.0164234,-0.0177211,-0.0346603
0.9500000,0.9500000,0.9500000,-0.0161557,-0.0023777,-0.2864751,-0.0161557,-0.0174696,-0.0340625
0.9525000,0.9525000,0.9525000,-0.0158931,-0.0023592,-0.2841641,-0.0158931,-0.0172227,-0.0334764
0.9550000,0.9550000,0.9550000,-0.0156355,-0.0023409,-0.2818779,-0.0156355,-0.0169801,-0.0329016
0.9575000,0.9575000,0.9575000,-0.0153828,-0.0023228,-0.2796164,-0.0153828,-0.0167418,-0.0323379
0.9600000,0.9600000,0.9600000,-0.0151348,-0.0023049,-0.2773792,-0.0151348,-0.0165078,-0.0317851
0.9625000,0.9625000,0.9625000,-0.0148915,-0.0022872,-0.2751659,-0.0148915,-0.0162778,-0.0312430
0.9650000,0.9650000,0.9650000,-0.0146527,-0.0022696,-0.2729762,-0.0146527,-0.0160519,-0.0307112
0.9675000,0.9675000,0.9675000,-0.0144185,-0.0022522,-0.2708098,-0.0144185,-0.0158299,-0.0301897
0.9700000,0.9700000,0.9700000,-0.0141886,-0.0022350,-0.2686665,-0.0141886,-0.0156118,-0.0296781
0.9725000,0.9725000,0.9725000,-0.0139630,-0.0022180,-0.2665458,-0.0139630,-0.0153974,-0.0291763
0.9750000,0.9750000,0.9750000,-0.0137416,-0.0022011,-0.2644476,-0.0137416,-0.0151868,-0.0286840
0.9775000,0.9775000,0.9775000,-0.0135242,-0.0021844,-0.2623714,-0.0135242,-0.0149798,-0.0282010
0.9800000,0.9800000,0.9800000,-0.0133109,-0.0021678,-0.2603170,-0.0133109,-0.0147764,-0.0277272
0.9825000,0.9825000,0.9825000,-0.0131016,-0.0021514,-0.2582842,-0.0131016,-0.0145764,-0.0272623
0.9850000,0.9850000,0.9850000,-0.0128960,-0.0021352,-0.2562726,-0.0128960,-0.0143799,-0.0268062
0.9875000,0.9875000,0.9875000,-0.0126943,-0.0021192,-0.2542819,-0.0126943,-0.0141867,-0.0263587
0.9900000,0.9900000,0.9900000,-0.0124962,-0.0021033,-0.2523120,-0.0124962,-0.0139968,-0.0259195
0.9925000,0.9925000,0.9925000,-0.0123018,-0.0020875,-0.2503624,-0.0123018,-0.0138101,-0.0254886
0.9950000,0.9950000,0.9950000,-0.0121108,-0.0020719,-0.2484330,-0.0121108,-0.0136265,-0.0250657
0.9975000,0.9975000,0.9975000,-0.0119234,-0.0020565,-0.2465235,-0.0119234,-0.0134461,-0.0246506
1.0000000,1.0000000,1.0000000,-0.0117393,-0.0020412,-0.2446336,-0.0117393,-0.0132686,-0.0242433
1.0025000,1.0025000,1.0025000,-0.0115585,-0.0020260,-0.2427631,-0.0115585,-0.0130942,-0.0238435
1.0050000,1.0050000,1.0050000,-0.0113810,-0.0020110,-0.2409117,-0.0113810,-0.0129226,-0.0234511
1.0075000,1.0075000,1.0075000,-0.0112067,-0.0019962,-0.2390793,-0.0112067,-0.0127539,-0.0230659
1.0100000,1.0100000,1.0100000,-0.0110355,-0.0019815,-0.2372654,-0.0110355,-0.0125879,-0.0226878
1.0125000,1.0125000,1.0125000,-0.0108674,-0.0019669,-0.2354700,-0.0108674,-0.0124247,-0.0223167
1.0150000,1.0150000,1.0150000,-0.0107022,-0.0019525,-0.2336927,-0.0107022,-0.0122642,-0.0219523
1.0175000,1.0175000,1.0175000,-0.0105400,-0.0019382,-0.2319334,-0.0105400,-0.0121063,-0.0215946
1.0200000,1.0200000,1.0200000,-0.0103807,-0.0019241,-0.2301918,-0.0103807,-0.0119510,-0.0212434
1.0225000,1.0225000,1.0225000,-0.0102241,-0.0019100,-0.2284676,-0.0102241,-0.0117983,-0.0208986
1.0250000,1.0250000,1.0250000,-0.0100704,-0.0018962,-0.2267608,-0.0100704,-0.0116480,-0.0205600
1.0275000,1.0275000,1.0275000,-0.0099193,-0.0018824,-0.2250710,-0.0099193,-0.0115001,-0.0202275
1.0300000,1.0300000,1.0300000,-0.0097709,-0.0018688,-0.2233980,-0.0097709,-0.0113547,-0.0199011
1.0325000,1.0325000,1.0325000,-0.0096250,-0.0018553,-0.2217417,-0.0096250,-0.0112115,-0.0195805
1.0350000,1.0350000,1.0350000,-0.0094817,-0.0018419,-0.2201018,-0.0094817,-0.0110707,-0.0192657
1.0375000,1.0375000,1.0375000,-0.0093409,-0.0018287,-0.2184781,-0.0093409,-0.0109321,-0.0189565
1.0400000,1.0400000,1.0400000,-0.0092026,-0.0018156,-0.2168704,-0.0092026,-0.0107958,-0.0186529
1.0425000,1.0425000,1.0425000,-0.0090666,-0.0018026,-0.2152786,-0.0090666,-0.0106616,-0.0183547
1.0450000,1.0450000,1.0450000,-0.0089330,-0.0017897,-0.2137024,-0.0089330,-0.0105295,-0.0180618
1.0475000,1.0475000,1.0475000,-0.0088017,-0.0017770,-0.2121416,-0.0088017,-0.0103995,-0.0177741
1.0500000,1.0500000,1.0500000,-0.0086726,-0.0017643,-0.2105960,-0.0086726,-0.0102716,-0.0174914
1.0525000,1.0525000,1.0525000,-0.0085458,-0.0017518,-0.2090655,-0.0085458,-0.0101456,-0.0172138
1.0550000,1.0550000,1.0550000,-0.0084211,-0.0017394,-0.2075499,-0.0084211,-0.0100217,-0.0169411
1.0575000,1.0575000,1.0575000,-0.0082986,-0.0017272,-0.2060490,-0.0082986,-0.0098996,-0.0166732
1.0600000,1.0600000,1.0600000,-0.0081781,-0.0017150,-0.2045625,-0.0081781,-0.0097795,-0.0164100
1.0625000,1.0625000,1.0625000,-0.0080597,-0.0017029,-0.2030905,-0.0080597,-0.0096613,-0.0161514
1.0650000,1.0650000,1.0650000,-0.0079432,-0.0016910,-0.2016325,-0.0079432,-0.0095448,-0.0158973
1.0675000,1.0675000,1.0675000,-0.0078288,-0.0016792,-0.2001886,-0.0078288,-0.0094302,-0.0156476
1.0700000,1.0700000,1.0700000,-0.0077162,-0.0016674,-0.1987585,-0.0077162,-0.0093173,-0.0154023
1.0725000,1.0725000,1.0725000,-0.0076056,-0.0016558,-0.1973421,-0.0076056,-0.0092062,-0.0151613
1.0750000,1.0750000,1.0750000,-0.0074968,-0.0016443,-0.1959391,-0.0074968,-0.0090967,-0.0149244
1.0775000,1.0775000,1.0775000,-0.0073898,-0.0016329,-0.1945495,-0.0073898,-0.0089889,-0.0146916
1.0800000,1.0800000,1.0800000,-0.0072847,-0.0016216,-0.1931731,-0.0072847,-0.0088828,-0.0144629
1.0825000,1.0825000,1.0825000,-0.0071812,-0.0016104,-0.1918097,-0.0071812,-0.0087783,-0.0142381
1.0850000,1.0850000,1.0850000,-0.0070795,-0.0015993,-0.1904591,-0.0070795,-0.0086753,-0.0140171
1.0875000,1.0875000,1.0875000,-0.0069794,-0.0015883,-0.1891213,-0.0069794,-0.0085739,-0.0138000
1.0900000,1.0900000,1.0900000,-0.0068811,-0.0015774,-0.1877960,-0.0068811,-0.0084740,-0.0135865
1.0925000,1.0925000,1.0925000,-0.0067843,-0.0015666,-0.1864831,-0.0067843,-0.0083756,-0.0133767
1.0950000,1.0950000,1.0950000,-0.0066891,-0.0015560,-0.1851825,-0.0066891,-0.0082787,-0.0131705
1.0975000,1.0975000,1.0975000,-0.0065955,-0.0015453,-0.1838940,-0.0065955,-0.0081832,-0.0129678
1.1000000,1.1000000,1.1000000,-0.0065034,-0.0015348,-0.1826176,-0.0065034,-0.0080892,-0.0127685
1.1025000,1.1025000,1.1025000,-0.0064128,-0.0015244,-0.1813529,-0.0064128,-0.0079965,-0.0125726
1.1050000,1.1050000,1.1050000,-0.0063237,-0.0015141,-0.1801000,-0.0063237,-0.0079052,-0.0123800
1.1075000,1.1075000,1.1075000,-0.0062360,-0.0015039,-0.1788586,-0.0062360,-0.0078152,-0.0121907
1.1100000,1.1100000,1.1100000,-0.0061498,-0.0014937,-0.1776287,-0.0061498,-0.0077266,-0.0120045
1.1125000,1.1125000,1.1125000,-0.0060649,-0.0014837,-0.1764101,-0.0060649,-0.0076393,-0.0118215
1.1150000,1.1150000,1.1150000,-0.0059814,-0.0014737,-0.1752026,-0.0059814,-0.0075532,-0.0116415
1.1175000,1.1175000,1.1175000,-0.0058993,-0.0014639,-0.1740062,-0.0058993,-0.0074684,-0.0114646
1.1200000,1.1200000,1.1200000,-0.0058185,-0.0014541,-0.1728207,-0.0058185,-0.0073848,-0.0112906
1.1225000,1.1225000,1.1225000,-0.0057389,-0.0014444,-0.1716461,-0.0057389,-0.0073024,-0.0111195
1.1250000,1.1250000,1.1250000,-0.0056607,-0.0014348,-0.1704820,-0.0056607,-0.0072212,-0.0109512
1.1275000,1.1275000,1.1275000,-0.0055837,-0.0014253,-0.1693286,-0.0055837,-0.0071412,-0.0107857
1.1300000,1.1300000,1.1300000,-0.0055079,-0.0014158,-0.1681855,-0.0055079,-0.0070623,-0.0106230
1.1325000,1.1325000,1.1325000,-0.0054333,-0.0014065,-0.1670528,-0.0054333,-0.0069845,-0.0104629
1.1350000,1.1350000,1.1350000,-0.0053599,-0.0013972,-0.1659303,-0.0053599,-0.0069079,-0.0103055
1.1375000,1.1375000,1.1375000,-0.0052876,-0.0013880,-0.1648179,-0.0052876,-0.0068323,-0.0101507
1.1400000,1.1400000,1.1400000,-0.0052165,-0.0013789,-0.1637154,-0.0052165,-0.0067578,-0.0099985
1.1425000,1.1425000,1.1425000,-0.0051465,-0.0013698,-0.1626228,-0.0051465,-0.0066844,-0.0098487
1.1450000,1.1450000,1.1450000,-0.0050776,-0.0013609,-0.1615399,-0.0050776,-0.0066120,-0.0097014
1.1475000,1.1475000,1.1475000,-0.0050098,-0.0013520,-0.1604666,-0.0050098,-0.0065406,-0.0095564
1.1500000,1.1500000,1.1500000,-0.0049430,-0.0013432,-0.1594029,-0.0049430,-0.0064702,-0.0094139
1.1525000,1.1525000,1.1525000,-0.0048773,-0.0013344,-0.1583486,-0.0048773,-0.0064008,-0.0092736
1.1550000,1.1550000,1.1550000,-0.0048126,-0.0013258,-0.1573037,-0.0048126,-0.0063323,-0.0091357
1.1575000,1.1575000,1.1575000,-0.0047489,-0.0013172,-0.1562679,-0.0047489,-0.0062648,-0.0089999
1.1600000,1.1600000,1.1600000,-0.0046862,-0.0013087,-0.1552413,-0.0046862,-0.0061983,-0.0088664
1.1625000,1.1625000,1.1625000,-0.0046244,-0.0013003,-0.1542236,-0.0046244,-0.0061326,-0.0087350
1.1650000,1.1650000,1.1650000,-0.0045636,-0.0012919,-0.1532149,-0.0045636,-0.0060679,-0.0086057
1.1675000,1.1675000,1.1675000,-0.0045038,-0.0012836,-0.1522150,-0.0045038,-0.0060040,-0.0084786
1.1700000,1.1700000,1.1700000,-0.0044448,-0.0012754,-0.1512238,-0.0044448,-0.0059411,-0.0083534
1.1725000,1.1725000,1.1725000,-0.0043868,-0.0012672,-0.1502413,-0.0043868,-0.0058789,-0.0082303
1.1750000,1.1750000,1.1750000,-0.0043296,-0.0012591,-0.1492673,-0.0043296,-0.0058177,-0.0081091
1.1775000,1.1775000,1.1775000,-0.0042733,-0.0012511,-0.1483017,-0.0042733,-0.0057572,-0.0079899
1.1800000,1.1800000,1.1800000,-0.0042179,-0.0012432,-0.1473444,-0.0042179,-0.0056976,-0.0078725
1.1825000,1.1825000,1.1825000,-0.0041633,-0.0012353,-0.1463954,-0.0041633,-0.0056388,-0.0077570
1.1850000,1.1850000,1.1850000,-0.0041095,-0.0012275,-0.1454546,-0.0041095,-0.0055808,-0.0076434
1.1875000,1.1875000,1.1875000,-0.0040566,-0.0012197,-0.1445219,-0.0040566,-0.0055235,-0.0075315
1.1900000,1.1900000,1.1900000,-0.0040044,-0.0012121,-0.1435971,-0.0040044,-0.0054670,-0.0074215
1.1925000,1.1925000,1.1925000,-0.0039530,-0.0012044,-0.1426803,-0.0039530,-0.0054113,-0.0073131
1.1950000,1.1950000,1.1950000,-0.0039024,-0.0011969,-0.1417713,-0.0039024,-0.0053563,-0.0072065
1.1975000,1.1975000,1.1975000,-0.0038526,-0.0011894,-0.1408700,-0.0038526,-0.0053021,-0.0071015
1.2000000,1.2000000,1.2000000,-0.0038035,-0.0011819,-0.1399764,-0.0038035,-0.0052485,-0.0069982
1.2025000,1.2025000,1.2025000,-0.0037551,-0.0011746,-0.1390903,-0.0037551,-0.0051957,-0.0068965
1.2050000,1.2050000,1.2050000,-0.0037074,-0.0011673,-0.1382117,-0.0037074,-0.0051436,-0.0067964
1.2075000,1.2075000,1.2075000,-0.0036605,-0.0011600,-0.1373406,-0.0036605,-0.0050921,-0.0066979
1.2100000,1.2100000,1.2100000,-0.0036142,-0.0011528,-0.1364768,-0.0036142,-0.0050413,-0.0066009
1.2125000,1.2125000,1.2125000,-0.0035686,-0.0011457,-0.1356202,-0.0035686,-0.0049912,-0.0065054
1.2150000,1.2150000,1.2150000,-0.0035237,-0.0011386,-0.1347709,-0.0035237,-0.0049418,-0.0064114
1.2175000,1.2175000,1.2175000,-0.0034795,-0.0011316,-0.1339286,-0.0034795,-0.0048929,-0.0063188
1.2200000,1.2200000,1.2200000,-0.0034359,-0.0011247,-0.1330934,-0.0034359,-0.0048447,-0.0062277
1.2225000,1.2225000,1.2225000,-0.0033929,-0.0011178,-0.1322651,-0.0033929,-0.0047972,-0.0061379
1.2250000,1.2250000,1.2250000,-0.0033506,-0.0011109,-0.1314437,-0.0033506,-0.0047502,-0.0060496
1.2275000,1.2275000,1.2275000,-0.0033089,-0.0011041,-0.1306291,-0.0033089,-0.0047039,-0.0059626
1.2300000,1.2300000,1.2300000,-0.0032678,-0.0010974,-0.1298213,-0.0032678,-0.0046581,-0.0058770
1.2325000,1.2325000,1.2325000,-0.0032273,-0.0010907,-0.1290201,-0.0032273,-0.0046129,-0.0057927
1.2350000,1.2350000,1.2350000,-0.0031873,-0.0010841,-0.1282256,-0.0031873,-0.0045683,-0.0057096
1.2375000,1.2375000,1.2375000,-0.0031480,-0.0010775,-0.1274376,-0.0031480,-0.0045243,-0.0056278
1.2400000,1.2400000,1.2400000,-0.0031092,-0.0010710,-0.1266560,-0.0031092,-0.0044808,-0.0055473
1.2425000,1.2425000,1.2425000,-0.0030710,-0.0010645,-0.1258809,-0.0030710,-0.0044379,-0.0054680
1.2450000,1.2450000,1.2450000,-0.0030333,-0.0010581,-0.1251121,-0.0030333,-0.0043955,-0.0053899
1.2475000,1.2475000,1.2475000,-0.0029962,-0.0010517,-0.1243495,-0.0029962,-0.0043536,-0.0053130
1.2500000,1.2500000,1.2500000,-0.0029596,-0.0010454,-0.1235932,-0.0029596,-0.0043123,-0.0052373
1.2525000,1.2525000,1.2525000,-0.0029235,-0.0010392,-0.1228430,-0.0029235,-0.0042715,-0.0051627
1.2550000,1.2550000,1.2550000,-0.0028879,-0.0010329,-0.1220989,-0.0028879,-0.0042312,-0.0050892
1.2575000,1.2575000,1.2575000,-0.0028529,-0.0010268,-0.1213608,-0.0028529,-0.0041914,-0.0050169
1.2600000,1.2600000,1.2600000,-0.0028183,-0.0010207,-0.1206287,-0.0028183,-0.0041521,-0.0049456
1.2625000,1.2625000,1.2625000,-0.0027842,-0.0010146,-0.1199025,-0.0027842,-0.0041133,-0.0048754
1.2650000,1.2650000,1.2650000,-0.0027506,-0.0010086,-0.1191821,-0.0027506,-0.0040749,-0.0048062
1.2675000,1.2675000,1.2675000,-0.0027175,-0.0010026,-0.1184675,-0.0027175,-0.0040370,-0.0047381
1.2700000,1.2700000,1.2700000,-0.0026849,-0.0009967,-0.1177586,-0.0026849,-0.0039996,-0.0046710
1.2725000,1.2725000,1.2725000,-0.0026527,-0.0009908,-0.1170554,-0.0026527,-0.0039627,-0.0046049
1.2750000,1.2750000,1.2750000,-0.0026209,-0.0009850,-0.1163578,-0.0026209,-0.0039262,-0.0045398
1.2775000,1.2775000,1.2775000,-0.0025896,-0.0009792,-0.1156657,-0.0025896,-0.0038901,-0.0044757
1.2800000,1.2800000,1.2800000,-0.0025588,-0.0009734,-0.1149792,-0.0025588,-0.0038545,-0.0044125
1.2825000,1.2825000,1.2825000,-0.0025283,-0.0009677,-0.1142981,-0.0025283,-0.0038193,-0.0043502
1.2850000,1.2850000,1.2850000,-0.0024983,-0.0009621,-0.1136224,-0.0024983,-0.0037845,-0.0042889
1.2875000,1.2875000,1.2875000,-0.0024687,-0.0009565,-0.1129520,-0.0024687,-0.0037502,-0.0042285
1.2900000,1.2900000,1.2900000,-0.0024395,-0.0009509,-0.1122869,-0.0024395,-0.0037163,-0.0041690
1.2925000,1.2925000,1.2925000,-0.0024107,-0.0009454,-0.1116270,-0.0024107,-0.0036827,-0.0041103
1.2950000,1.2950000,1.2950000,-0.0023823,-0.0009399,-0.1109723,-0.0023823,-0.0036496,-0.0040525
1.2975000,1.2975000,1.2975000,-0.0023543,-0.0009345,-0.1103227,-0.0023543,-0.0036169,-0.0039956
1.3000000,1.3000000,1.3000000,-0.0023267,-0.0009291,-0.1096782,-0.0023267,-0.0035845,-0.0039395
1.3025000,1.3025000,1.3025000,-0.0022995,-0.0009237,-0.1090388,-0.0022995,-0.0035526,-0.0038842
1.3050000,1.3050000,1.3050000,-0.0022726,-0.0009184,-0.1084043,-0.0022726,-0.0035210,-0.0038297
1.3075000,1.3075000,1.3075000,-0.0022461,-0.0009131,-0.1077747,-0.0022461,-0.0034898,-0.0037760
1.3100000,1.3100000,1.3100000,-0.0022200,-0.0009079,-0.1071501,-0.0022200,-0.0034589,-0.0037232
1.3125000,1.3125000,1.3125000,-0.0021942,-0.0009027,-0.1065302,-0.0021942,-0.0034284,-0.0036710
1.3150000,1.3150000,1.3150000,-0.0021688,-0.0008976,-0.1059152,-0.0021688,-0.0033983,-0.0036197
1.3175000,1.3175000,1.3175000,-0.0021437,-0.0008924,-0.1053049,-0.0021437,-0.0033685,-0.0035690
1.3200000,1.3200000,1.3200000,-0.0021189,-0.0008874,-0.1046993,-0.0021189,-0.0033391,-0.0035191
1.3225000,1.3225000,1.3225000,-0.0020945,-0.0008823,-0.1040983,-0.0020945,-0.0033100,-0.0034700
1.3250000,1.3250000,1.3250000,-0.0020704,-0.0008773,-0.1035019,-0.0020704,-0.0032813,-0.0034215
1.3275000,1.3275000,1.3275000,-0.0020467,-0.0008724,-0.1029102,-0.0020467,-0.0032529,-0.0033738
1.3300000,1.3300000,1.3300000,-0.0020232,-0.0008674,-0.1023229,-0.0020232,-0.0032248,-0.0033267
1.3325000,1.3325000,1.3325000,-0.0020001,-0.0008626,-0.1017401,-0.0020001,-0.0031970,-0.0032803
1.3350000,1.3350000,1.3350000,-0.0019773,-0.0008577,-0.1011617,-0.0019773,-0.0031695,-0.0032346
1.3375000,1.3375000,1.3375000,-0.0019548,-0.0008529,-0.1005877,-0.0019548,-0.0031424,-0.0031895
1.3400000,1.3400000,1.3400000,-0.0019325,-0.0008481,-0.1000181,-0.0019325,-0.0031156,-0.0031451
1.3425000,1.3425000,1.3425000,-0.0019106,-0.0008434,-0.0994528,-0.0019106,-0.0030891,-0.0031013
1.3450000,1.3450000,1.3450000,-0.0018890,-0.0008387,-0.0988917,-0.0018890,-0.0030628,-0.0030581
1.3475000,1.3475000,1.3475000,-0.0018676,-0.0008340,-0.0983349,-0.0018676,-0.0030369,-0.0030156
1.3500000,1.3500000,1.3500000,-0.0018466,-0.0008293,-0.0977823,-0.0018466,-0.0030113,-0.0029736
1.3525000,1.3525000,1.3525000,-0.0018258,-0.0008247,-0.0972338,-0.0018258,-0.0029859,-0.0029323
1.3550000,1.3550000,1.3550000,-0.0018053,-0.0008202,-0.0966894,-0.0018053,-0.0029609,-0.0028915
1.3575000,1.3575000,1.3575000,-0.0017850,-0.0008156,-0.0961491,-0.0017850,-0.0029361,-0.0028513
1.3600000,1.3600000,1.3600000,-0.0017650,-0.0008111,-0.0956128,-0.0017650,-0.0029116,-0.0028117
1.3625000,1.3625000,1.3625000,-0.0017453,-0.0008067,-0.0950805,-0.0017453,-0.0028874,-0.0027727
1.3650000,1.3650000,1.3650000,-0.0017259,-0.0008022,-0.0945522,-0.0017259,-0.0028634,-0.0027342
1.3675000,1.3675000,1.3675000,-0.0017067,-0.0007978,-0.0940278,-0.0017067,-0.0028397,-0.0026962
1.3700000,1.3700000,1.3700000,-0.0016877,-0.0007934,-0.0935072,-0.0016877,-0.0028163,-0.0026588
1.3725000,1.3725000,1.3725000,-0.0016690,-0.0007891,-0.0929906,-0.0016690,-0.0027931,-0.0026219
1.3750000,1.3750000,1.3750000,-0.0016505,-0.0007848,-0.0924777,-0.0016505,-0.0027702,-0.0025855
1.3775000,1.3775000,1.3775000,-0.0016323,-0.0007805,-0.0919686,-0.0016323,-0.0027475,-0.0025496
1.3800000,1.3800000,1.3800000,-0.0016143,-0.0007763,-0.0914632,-0.0016143,-0.0027251,-0.0025143
1.3825000,1.3825000,1.3825000,-0.0015965,-0.0007720,-0.0909616,-0.0015965,-0.0027029,-0.0024794
1.3850000,1.3850000,1.3850000,-0.0015790,-0.0007679,-0.0904636,-0.0015790,-0.0026810,-0.0024450
1.3875000,1.3875000,1.3875000,-0.0015617,-0.0007637,-0.0899693,-0.0015617,-0.0026593,-0.0024111
1.3900000,1.3900000,1.3900000,-0.0015446,-0.0007596,-0.0894786,-0.0015446,-0.0026378,-0.0023777
1.3925000,1.3925000,1.3925000,-0.0015277,-0.0007555,-0.0889914,-0.0015277,-0.0026166,-0.0023447
1.3950000,1.3950000,1.3950000,-0.0015110,-0.0007514,-0.0885078,-0.0015110,-0.0025956,-0.0023122
1.3975000,1.3975000,1.3975000,-0.0014946,-0.0007474,-0.0880277,-0.0014946,-0.0025748,-0.0022801
1.4000000,1.4000000,1.4000000,-0.0014784,-0.0007434,-0.0875511,-0.0014784,-0.0025543,-0.0022485
1.4025000,1.4025000,1.4025000,-0.0014623,-0.0007394,-0.0870779,-0.0014623,-0.0025339,-0.0022173
1.4050000,1.4050000,1.4050000,-0.0014465,-0.0007354,-0.0866081,-0.0014465,-0.0025138,-0.0021866
1.4075000,1.4075000,1.4075000,-0.0014309,-0.0007315,-0.0861417,-0.0014309,-0.0024939,-0.0021563
1.4100000,1.4100000,1.4100000,-0.0014154,-0.0007276,-0.0856787,-0.0014154,-0.0024742,-0.0021264
1.4125000,1.4125000,1.4125000,-0.0014002,-0.0007237,-0.0852190,-0.0014002,-0.0024548,-0.0020969
1.4150000,1.4150000,1.4150000,-0.0013852,-0.0007199,-0.0847626,-0.0013852,-0.0024355,-0.0020678
1.4175000,1.4175000,1.4175000,-0.0013703,-0.0007161,-0.0843094,-0.0013703,-0.0024164,-0.0020391
1.4200000,1.4200000,1.4200000,-0.0013556,-0.0007123,-0.0838595,-0.0013556,-0.0023975,-0.0020108
1.4225000,1.4225000,1.4225000,-0.0013412,-0.0007085,-0.0834128,-0.0013412,-0.0023789,-0.0019829
1.4250000,1.4250000,1.4250000,-0.0013268,-0.0007048,-0.0829693,-0.0013268,-0.0023604,-0.0019554
1.4275000,1.4275000,1.4275000,-0.0013127,-0.0007011,-0.0825289,-0.0013127,-0.0023421,-0.0019282
1.4300000,1.4300000,1.4300000,-0.0012988,-0.0006974,-0.0820916,-0.0012988,-0.0023240,-0.0019014
1.4325000,1.4325000,1.4325000,-0.0012850,-0.0006938,-0.0816574,-0.0012850,-0.0023061,-0.0018750
1.4350000,1.4350000,1.4350000,-0.0012714,-0.0006901,-0.0812263,-0.0012714,-0.0022884,-0.0018490
1.4375000,1.4375000,1.4375000,-0.0012579,-0.0006865,-0.0807983,-0.0012579,-0.0022709,-0.0018233
1.4400000,1.4400000,1.4400000,-0.0012447,-0.0006829,-0.0803732,-0.0012447,-0.0022535,-0.0017979
1.4425000,1.4425000,1.4425000,-0.0012316,-0.0006794,-0.0799511,-0.0012316,-0.0022363,-0.0017729
1.4450000,1.4450000,1.4450000,-0.0012186,-0.0006758,-0.0795320,-0.0012186,-0.0022193,-0.0017483
1.4475000,1.4475000,1.4475000,-0.0012058,-0.0006723,-0.0791158,-0.0012058,-0.0022025,-0.0017239
1.4500000,1.4500000,1.4500000,-0.0011932,-0.0006689,-0.0787025,-0.0011932,-0.0021858,-0.0016999
1.4525000,1.4525000,1.4525000,-0.0011807,-0.0006654,-0.0782922,-0.0011807,-0.0021694,-0.0016763
1.4550000,1.4550000,1.4550000,-0.0011684,-0.0006620,-0.0778846,-0.0011684,-0.0021530,-0.0016529
1.4575000,1.4575000,1.4575000,-0.0011562,-0.0006586,-0.0774799,-0.0011562,-0.0021369,-0.0016299
1.4600000,1.4600000,1.4600000,-0.0011442,-0.0006552,-0.0770780,-0.0011442,-0.0021209,-0.0016071
1.4625000,1.4625000,1.4625000,-0.0011323,-0.0006518,-0.0766789,-0.0011323,-0.0021051,-0.0015847
1.4650000,1.4650000,1.4650000,-0.0011205,-0.0006485,-0.0762825,-0.0011205,-0.0020894,-0.0015626
1.4675000,1.4675000,1.4675000,-0.0011089,-0.0006451,-0.0758889,-0.0011089,-0.0020739,-0.0015407
1.4700000,1.4700000,1.4700000,-0.0010975,-0.0006418,-0.0754980,-0.0010975,-0.0020585,-0.0015192
1.4725000,1.4725000,1.4725000,-0.0010862,-0.0006386,-0.0751098,-0.0010862,-0.0020433,-0.0014979
1.4750000,1.4750000,1.4750000,-0.0010750,-0.0006353,-0.0747242,-0.0010750,-0.0020283,-0.0014770
1.4775000,1.4775000,1.4775000,-0.0010639,-0.0006321,-0.0743413,-0.0010639,-0.0020134,-0.0014563
1.4800000,1.4800000,1.4800000,-0.0010530,-0.0006289,-0.0739610,-0.0010530,-0.0019986,-0.0014359
1.4825000,1.4825000,1.4825000,-0.0010422,-0.0006257,-0.0735833,-0.0010422,-0.0019840,-0.0014158
1.4850000,1.4850000,1.4850000,-0.0010316,-0.0006225,-0.0732082,-0.0010316,-0.0019696,-0.0013959
1.4875000,1.4875000,1.4875000,-0.0010211,-0.0006194,-0.0728356,-0.0010211,-0.0019553,-0.0013763
1.4900000,1.4900000,1.4900000,-0.0010107,-0.0006163,-0.0724655,-0.0010107,-0.0019411,-0.0013569
1.4925000,1.4925000,1.4925000,-0.0010004,-0.0006132,-0.0720980,-0.0010004,-0.0019270,-0.0013378
1.4950000,1.4950000,1.4950000,-0.0009902,-0.0006101,-0.0717330,-0.0009902,-0.0019131,-0.0013190
1.4975000,1.4975000,1.4975000,-0.0009802,-0.0006070,-0.0713704,-0.0009802,-0.0018994,-0.0013004
1.5000000,1.5000000,1.5000000,-0.0009703,-0.0006040,-0.0710102,-0.0009703,-0.0018857,-0.0012821
1.5025000,1.5025000,1.5025000,-0.0009605,-0.0006010,-0.0706525,-0.0009605,-0.0018722,-0.0012640
1.5050000,1.5050000,1.5050000,-0.0009508,-0.0005980,-0.0702972,-0.0009508,-0.0018589,-0.0012461
1.5075000,1.5075000,1.5075000,-0.0009412,-0.0005950,-0.0699443,-0.0009412,-0.0018456,-0.0012285
1.5100000,1.5100000,1.5100000,-0.0009318,-0.0005920,-0.0695938,-0.0009318,-0.0018325,-0.0012111
1.5125000,1.5125000,1.5125000,-0.0009224,-0.0005891,-0.0692456,-0.0009224,-0.0018195,-0.0011940
1.5150000,1.5150000,1.5150000,-0.0009132,-0.0005862,-0.0688997,-0.0009132,-0.0018067,-0.0011770
1.5175000,1.5175000,1.5175000,-0.0009040,-0.0005833,-0.0685561,-0.0009040,-0.0017939,-0.0011603
1.5200000,1.5200000,1.5200000,-0.0008950,-0.0005804,-0.0682148,-0.0008950,-0.0017813,-0.0011438
1.5225000,1.5225000,1.5225000,-0.0008861,-0.0005775,-0.0678758,-0.0008861,-0.0017688,-0.0011276
1.5250000,1.5250000,1.5250000,-0.0008773,-0.0005747,-0.0675390,-0.0008773,-0.0017564,-0.0011115
1.5275000,1.5275000,1.5275000,-0.0008686,-0.0005718,-0.0672045,-0.0008686,-0.0017442,-0.0010956
1.5300000,1.5300000,1.5300000,-0.0008600,-0.0005690,-0.0668721,-0.0008600,-0.0017320,-0.0010800
1.5325000,1.5325000,1.5325000,-0.0008514,-0.0005662,-0.0665420,-0.0008514,-0.0017200,-0.0010646
1.5350000,1.5350000,1.5350000,-0.0008430,-0.0005635,-0.0662140,-0.0008430,-0.0017081,-0.0010493
1.5375000,1.5375000,1.5375000,-0.0008347,-0.0005607,-0.0658882,-0.0008347,-0.0016963,-0.0010343
1.5400000,1.5400000,1.5400000,-0.0008265,-0.0005580,-0.0655645,-0.0008265,-0.0016846,-0.0010194
1.5425000,1.5425000,1.5425000,-0.0008184,-0.0005553,-0.0652430,-0.0008184,-0.0016730,-0.0010048
1.5450000,1.5450000,1.5450000,-0.0008103,-0.0005526,-0.0649235,-0.0008103,-0.0016615,-0.0009903
1.5475000,1.5475000,1.5475000,-0.0008024,-0.0005499,-0.0646062,-0.0008024,-0.0016502,-0.0009760
1.5500000,1.5500000,1.5500000,-0.0007945,-0.0005472,-0.0642909,-0.0007945,-0.0016389,-0.0009620
1.5525000,1.5525000,1.5525000,-0.0007868,-0.0005446,-0.0639777,-0.0007868,-0.0016278,-0.0009480
1.5550000,1.5550000,1.5550000,-0.0007791,-0.0005419,-0.0636665,-0.0007791,-0.0016167,-0.0009343
1.5575000,1.5575000,1.5575000,-0.0007715,-0.0005393,-0.0633573,-0.0007715,-0.0016058,-0.0009208
1.5600000,1.5600000,1.5600000,-0.0007640,-0.0005367,-0.0630501,-0.0007640,-0.0015949,-0.0009074
1.5625000,1.5625000,1.5625000,-0.0007566,-0.0005341,-0.0627449,-0.0007566,-0.0015842,-0.0008942
1.5650000,1.5650000,1.5650000,-0.0007493,-0.0005316,-0.0624417,-0.0007493,-0.0015735,-0.0008812
1.5675000,1.5675000,1.5675000,-0.0007420,-0.0005290,-0.0621405,-0.0007420,-0.0015629,-0.0008683
1.5700000,1.5700000,1.5700000,-0.0007349,-0.0005265,-0.0618412,-0.0007349,-0.0015525,-0.0008556
1.5725000,1.5725000,1.5725000,-0.0007278,-0.0005240,-0.0615438,-0.0007278,-0.0015421,-0.0008431
1.5750000,1.5750000,1.5750000,-0.0007208,-0.0005215,-0.0612483,-0.0007208,-0.0015319,-0.0008307
1.5775000,1.5775000,1.5775000,-0.0007139,-0.0005190,-0.0609547,-0.0007139,-0.0015217,-0.0008185
1.5800000,1.5800000,1.5800000,-0.0007070,-0.0005165,-0.0606630,-0.0007070,-0.0015116,-0.0008065
1.5825000,1.5825000,1.5825000,-0.0007002,-0.0005141,-0.0603731,-0.0007002,-0.0015016,-0.0007946
1.5850000,1.5850000,1.5850000,-0.0006935,-0.0005117,-0.0600851,-0.0006935,-0.0014917,-0.0007828
1.5875000,1.5875000,1.5875000,-0.0006869,-0.0005092,-0.0597989,-0.0006869,-0.0014819,-0.0007712
1.5900000,1.5900000,1.5900000,-0.0006804,-0.0005068,-0.0595146,-0.0006804,-0.0014722,-0.0007598
1.5925000,1.5925000,1.5925000,-0.0006739,-0.0005044,-0.0592320,-0.0006739,-0.0014625,-0.0007485
1.5950000,1.5950000,1.5950000,-0.0006675,-0.0005021,-0.0589513,-0.0006675,-0.0014530,-0.0007373
1.5975000,1.5975000,1.5975000,-0.0006612,-0.0004997,-0.0586723,-0.0006612,-0.0014435,-0.0007263
