# r[nm],d[nm],daligned[nm],U(d)[kj/mol],V(d)[e/nm],Uslab(d)[kJ/mol],UC(d)[kJ/mol],UK(d)[kJ/mol],UCl(d)[kJ/mol]
0.1725000,0.1725000,0.1725000,1755.3455469,-0.2202462,inf,1755.3455469,1106.3650226,inf
0.1750000,0.1750000,0.1750000,1554.6594115,-0.2179912,inf,1554.6594115,978.6608672,inf
0.1775000,0.1775000,0.1775000,1377.9757560,-0.2156600,inf,1377.9757560,866.3008312,inf
0.1800000,0.1800000,0.1800000,1222.2822385,-0.2132617,inf,1222.2822385,767.3555289,inf
0.1825000,0.1825000,0.1825000,1084.9622338,-0.2108045,inf,1084.9622338,680.1492094,inf
0.1850000,0.1850000,0.1850000,963.7407219,-0.2082963,inf,963.7407219,603.2250653,inf
0.1875000,0.1875000,0.1875000,856.6378270,-0.2057443,inf,856.6378270,535.3154422,inf
0.1900000,0.1900000,0.1900000,761.9288985,-0.2031554,1822.8821483,761.9288985,475.3162338,inf
0.1925000,0.1925000,0.1925000,678.1101850,-0.2005360,1472.6083578,678.1101850,422.2648508,inf
0.1950000,0.1950000,0.1950000,603.8692950,-0.1978918,1195.8174884,603.8692950,375.3212451,inf
0.1975000,0.1975000,0.1975000,538.0597529,-0.1952282,975.7260515,538.0597529,333.7515528,inf
0.2000000,0.2000000,0.2000000,479.6790626,-0.1925499,799.6804571,479.6790626,296.9139912,inf
0.2025000,0.2025000,0.2025000,427.8497731,-0.1898610,658.0724547,427.8497731,264.2467069,1836.1836240
0.2050000,0.2050000,0.2050000,381.8031174,-0.1871641,543.5562533,381.8031174,235.2573160,1644.7431612
0.2075000,0.2075000,0.2075000,340.8648618,-0.1844608,450.4788630,340.8648618,209.5139122,1474.1709713
0.2100000,0.2100000,0.2100000,304.4430626,-0.1817507,374.4621825,304.4430626,186.6373409,1322.0704671
0.2125000,0.2125000,0.2125000,272.0174731,-0.1790314,312.0939143,272.0174731,166.2945525,1186.3350418
0.2150000,0.2150000,0.2150000,243.1303878,-0.1762990,260.6977084,243.1303878,148.1928666,1065.1113577
0.2175000,0.2175000,0.2175000,217.3787369,-0.1735481,218.1621767,217.3787369,132.0749956,956.7673526
0.2200000,0.2200000,0.2200000,194.4072657,-0.1707731,182.8138156,194.4072657,117.7146995,859.8644702
0.2225000,0.2225000,0.2225000,173.9026475,-0.1679694,153.3217590,173.9026475,104.9129692,773.1335359
0.2250000,0.2250000,0.2250000,155.5883924,-0.1651342,128.6247518,155.5883924,93.4946596,695.4537802
0.2275000,0.2275000,0.2275000,139.2204250,-0.1622677,107.8737068,139.2204250,83.3055158,625.8345810
0.2300000,0.2300000,0.2300000,124.5832225,-0.1593736,90.3860379,124.5832225,74.2095510,563.3995582
0.2325000,0.2325000,0.2325000,111.4864195,-0.1564591,75.6096788,111.4864195,66.0867429,507.3727028
0.2350000,0.2350000,0.2350000,99.7618081,-0.1535341,63.0952142,99.7618081,58.8310206,457.0662671
0.2375000,0.2375000,0.2375000,89.2606771,-0.1506107,52.4745477,89.2606771,52.3485125,411.8701801
0.2400000,0.2400000,0.2400000,79.8514526,-0.1477015,43.4445831,79.8514526,46.5560275,371.2427842
0.2425000,0.2425000,0.2425000,71.4176096,-0.1448191,35.7546309,71.4176096,41.3797416,334.7027207
0.2450000,0.2450000,0.2450000,63.8558305,-0.1419747,29.1965601,63.8558305,36.7540613,301.8218161
0.2475000,0.2475000,0.2475000,57.0743911,-0.1391780,23.5969993,57.0743911,32.6206400,272.2188453
0.2500000,0.2500000,0.2500000,50.9917497,-0.1364365,18.8110934,50.9917497,28.9275246,245.5540666
0.2525000,0.2525000,0.2525000,45.5353200,-0.1337558,14.7174680,45.5353200,25.6284132,221.5244386
0.2550000,0.2550000,0.2550000,40.6404049,-0.1311394,11.2141441,40.6404049,22.6820068,199.8594387
0.2575000,0.2575000,0.2575000,36.2492707,-0.1285894,8.2152111,36.2492707,20.0514427,180.3174099
0.2600000,0.2600000,0.2600000,32.3103418,-0.1261064,5.6481077,32.3103418,17.7037962,162.6823685
0.2625000,0.2625000,0.2625000,28.7774994,-0.1236900,3.4513930,28.7774994,15.6096428,146.7612076
0.2650000,0.2650000,0.2650000,25.6094691,-0.1213389,1.5729146,25.6094691,13.7426719,132.3812361
0.2675000,0.2675000,0.2675000,22.7692833,-0.1190516,-0.0317023,22.7692833,12.0793448,119.3880004
0.2700000,0.2700000,0.2700000,20.2238099,-0.1168258,-1.4003057,20.2238099,10.5985918,107.6433422
0.2725000,0.2725000,0.2725000,17.9433363,-0.1146594,-2.5652559,17.9433363,9.2815422,97.0236561
0.2750000,0.2750000,0.2750000,15.9012016,-0.1125500,-3.5542920,15.9012016,8.1112808,87.4183204
0.2775000,0.2775000,0.2775000,14.0734713,-0.1104951,-4.3912523,14.0734713,7.0726276,78.7282804
0.2800000,0.2800000,0.2800000,12.4386477,-0.1084927,-5.0966759,12.4386477,6.1519345,70.8647741
0.2825000,0.2825000,0.2825000,10.9774119,-0.1065406,-5.6882988,10.9774119,5.3368994,63.7481875
0.2850000,0.2850000,0.2850000,9.6723921,-0.1046372,-6.1814645,9.6723921,4.6163962,57.3070353
0.2875000,0.2875000,0.2875000,8.5079536,-0.1027815,-6.5894618,8.5079536,3.9803257,51.4770549
0.2900000,0.2900000,0.2900000,7.4700072,-0.1009738,-6.9238060,7.4700072,3.4194892,46.2004076
0.2925000,0.2925000,0.2925000,6.5458342,-0.0992159,-7.1944796,6.5458342,2.9254896,41.4249753
0.2950000,0.2950000,0.2950000,5.7239264,-0.0975119,-7.4101445,5.7239264,2.4906576,37.1037431
0.2975000,0.2975000,0.2975000,4.9938429,-0.0958684,-7.5783335,4.9938429,2.1080013,33.1942570
0.3000000,0.3000000,0.3000000,4.3460859,-0.0942942,-7.7056215,4.3460859,1.7711736,29.6581472
0.3025000,0.3025000,0.3025000,3.7719960,-0.0928001,-7.7977761,3.7719960,1.4744501,26.4607078
0.3050000,0.3050000,0.3050000,3.2636684,-0.0913973,-7.8598841,3.2636684,1.2127104,23.5705259
0.3075000,0.3075000,0.3075000,2.8138873,-0.0900965,-7.8964532,2.8138873,0.9814177,20.9591526
0.3100000,0.3100000,0.3100000,2.4160760,-0.0889055,-7.9114922,2.4160760,0.7765933,18.6008099
0.3125000,0.3125000,0.3125000,2.0642578,-0.0878283,-7.9085708,2.0642578,0.5947837,16.4721299
0.3150000,0.3150000,0.3150000,1.7530238,-0.0868632,-7.8908635,1.7530238,0.4330209,14.5519206
0.3175000,0.3175000,0.3175000,1.4775038,-0.0860024,-7.8611797,1.4775038,0.2887777,12.8209553
0.3200000,0.3200000,0.3200000,1.2333372,-0.0852319,-7.8219873,1.2333372,0.1599204,11.2617827
0.3225000,0.3225000,0.3225000,1.0166438,-0.0845318,-7.7754352,1.0166438,0.0446595,9.8585534
0.3250000,0.3250000,0.3250000,0.8239922,-0.0838780,-7.7233802,0.8239922,-0.0584979,8.5968625
0.3275000,0.3275000,0.3275000,0.6523686,-0.0832432,-7.6674132,0.6523686,-0.1507951,7.4636055
0.3300000,0.3300000,0.3300000,0.4991438,-0.0825993,-7.6088815,0.4991438,-0.2332694,6.4468469
0.3325000,0.3325000,0.3325000,0.3620413,-0.0819191,-7.5488964,0.3620413,-0.3067933,5.5357022
0.3350000,0.3350000,0.3350000,0.2391053,-0.0811784,-7.4883288,0.2391053,-0.3721108,4.7202326
0.3375000,0.3375000,0.3375000,0.1286690,-0.0803571,-7.4277991,0.1286690,-0.4298685,3.9913533
0.3400000,0.3400000,0.3400000,0.0293223,-0.0794413,-7.3676742,0.0293223,-0.4806395,3.3407544
0.3425000,0.3425000,0.3425000,-0.0601191,-0.0784238,-7.3080877,-0.0601191,-0.5249408,2.7608324
0.3450000,0.3450000,0.3450000,-0.1406459,-0.0773046,-7.2489894,-0.1406459,-0.5632426,2.2446328
0.3475000,0.3475000,0.3475000,-0.2130846,-0.0760910,-7.1902197,-0.2130846,-0.5959731,1.7857988
0.3500000,0.3500000,0.3500000,-0.2781259,-0.0747969,-7.1315894,-0.2781259,-0.6235193,1.3785259
0.3525000,0.3525000,0.3525000,-0.3363494,-0.0734414,-7.0729407,-0.3363494,-0.6462279,1.0175187
0.3550000,0.3550000,0.3550000,-0.3882439,-0.0720475,-7.0141754,-0.3882439,-0.6644074,0.6979507
0.3575000,0.3575000,0.3575000,-0.4342244,-0.0706395,-6.9552556,-0.4342244,-0.6783340,0.4154244
0.3600000,0.3600000,0.3600000,-0.4746453,-0.0692419,-6.8961969,-0.4746453,-0.6882613,0.1659341
0.3625000,0.3625000,0.3625000,-0.5098110,-0.0678768,-6.8370738,-0.5098110,-0.6944334,-0.0541693
0.3650000,0.3650000,0.3650000,-0.5399862,-0.0665630,-6.7780439,-0.5399862,-0.6970997,-0.2482092
0.3675000,0.3675000,0.3675000,-0.5654055,-0.0653147,-6.7193748,-0.5654055,-0.6965300,-0.4192094
0.3700000,0.3700000,0.3700000,-0.5862855,-0.0641421,-6.6614479,-0.5862855,-0.6930256,-0.5699146
0.3725000,0.3725000,0.3725000,-0.6028368,-0.0630507,-6.6047194,-0.6028368,-0.6869258,-0.7028057
0.3750000,0.3750000,0.3750000,-0.6152781,-0.0620431,-6.5496437,-0.6152781,-0.6786068,-0.8201099
0.3775000,0.3775000,0.3775000,-0.6238489,-0.0611191,-6.4965870,-0.6238489,-0.6684731,-0.9238081
0.3800000,0.3800000,0.3800000,-0.6288202,-0.0602774,-6.4457659,-0.6288202,-0.6569415,-1.0156405
0.3825000,0.3825000,0.3825000,-0.6305013,-0.0595163,-6.3972333,-0.6305013,-0.6444216,-1.0971127
0.3850000,0.3850000,0.3850000,-0.6292406,-0.0588346,-6.3509136,-0.6292406,-0.6312942,-1.1695041
0.3875000,0.3875000,0.3875000,-0.6254199,-0.0582324,-6.3066709,-0.6254199,-0.6178936,-1.2338799
0.3900000,0.3900000,0.3900000,-0.6194427,-0.0577106,-6.2643813,-0.6194427,-0.6044973,-1.2911066
0.3925000,0.3925000,0.3925000,-0.6117175,-0.0572706,-6.2239792,-0.6117175,-0.5913251,-1.3418721
0.3950000,0.3950000,0.3950000,-0.6026400,-0.0569139,-6.1854594,-0.6026400,-0.5785485,-1.3867084
0.3975000,0.3975000,0.3975000,-0.5925750,-0.0566410,-6.1488387,-0.5925750,-0.5663085,-1.4260163
0.4000000,0.4000000,0.4000000,-0.5818446,-0.0564506,-6.1141004,-0.5818446,-0.5547389,-1.4600918
0.4025000,0.4025000,0.4025000,-0.5707233,-0.0563384,-6.0811503,-0.5707233,-0.5439875,-1.4891521
0.4050000,0.4050000,0.4050000,-0.5594417,-0.0562972,-6.0498017,-0.5594417,-0.5342339,-1.5133608
0.4075000,0.4075000,0.4075000,-0.5481997,-0.0563155,-6.0197886,-0.5481997,-0.5256959,-1.5328523
0.4100000,0.4100000,0.4100000,-0.5371849,-0.0563781,-5.9907972,-0.5371849,-0.5186254,-1.5477541
0.4125000,0.4125000,0.4125000,-0.5265926,-0.0564655,-5.9625017,-0.5265926,-0.5132923,-1.5582066
0.4150000,0.4150000,0.4150000,-0.5166429,-0.0565549,-5.9345968,-0.5166429,-0.5099593,-1.5643788
0.4175000,0.4175000,0.4175000,-0.5075889,-0.0566211,-5.9068213,-0.5075889,-0.5088510,-1.5664799
0.4200000,0.4200000,0.4200000,-0.4997158,-0.0566381,-5.8789641,-0.4997158,-0.5101249,-1.5647650
0.4225000,0.4225000,0.4225000,-0.4933294,-0.0565813,-5.8508532,-0.4933294,-0.5138501,-1.5595343
0.4250000,0.4250000,0.4250000,-0.4887354,-0.0564287,-5.8223289,-0.4887354,-0.5200003,-1.5511273
0.4275000,0.4275000,0.4275000,-0.4862135,-0.0561631,-5.7932126,-0.4862135,-0.5284615,-1.5399109
0.4300000,0.4300000,0.4300000,-0.4859916,-0.0557721,-5.7632833,-0.4859916,-0.5390495,-1.5262654
0.4325000,0.4325000,0.4325000,-0.4882249,-0.0552486,-5.7322715,-0.4882249,-0.5515302,-1.5105690
0.4350000,0.4350000,0.4350000,-0.4929846,-0.0545898,-5.6998694,-0.4929846,-0.5656364,-1.4931852
0.4375000,0.4375000,0.4375000,-0.5002578,-0.0537956,-5.6657561,-0.5002578,-0.5810792,-1.4744546
0.4400000,0.4400000,0.4400000,-0.5099549,-0.0528683,-5.6296267,-0.5099549,-0.5975574,-1.4546929
0.4425000,0.4425000,0.4425000,-0.5219206,-0.0518113,-5.5912199,-0.5219206,-0.6147669,-1.4341952
0.4450000,0.4450000,0.4450000,-0.5359441,-0.0506298,-5.5503386,-0.5359441,-0.6324147,-1.4132456
0.4475000,0.4475000,0.4475000,-0.5517674,-0.0493306,-5.5068611,-0.5517674,-0.6502343,-1.3921282
0.4500000,0.4500000,0.4500000,-0.5690949,-0.0479229,-5.4607435,-0.5690949,-0.6679984,-1.3711370
0.4525000,0.4525000,0.4525000,-0.5876053,-0.0464187,-5.4120152,-0.5876053,-0.6855255,-1.3505824
0.4550000,0.4550000,0.4550000,-0.6069690,-0.0448322,-5.3607695,-0.6069690,-0.7026761,-1.3307926
0.4575000,0.4575000,0.4575000,-0.6268675,-0.0431790,-5.3071519,-0.6268675,-0.7193444,-1.3121089
0.4600000,0.4600000,0.4600000,-0.6470117,-0.0414753,-5.2513470,-0.6470117,-0.7354461,-1.2948763
0.4625000,0.4625000,0.4625000,-0.6671544,-0.0397366,-5.1935668,-0.6671544,-0.7509096,-1.2794300
0.4650000,0.4650000,0.4650000,-0.6870941,-0.0379777,-5.1340400,-0.6870941,-0.7656701,-1.2660802
0.4675000,0.4675000,0.4675000,-0.7066710,-0.0362120,-5.0730023,-0.7066710,-0.7796674,-1.2550965
0.4700000,0.4700000,0.4700000,-0.7257594,-0.0344521,-5.0106895,-0.7257594,-0.7928465,-1.2466930
0.4725000,0.4725000,0.4725000,-0.7442569,-0.0327094,-4.9473316,-0.7442569,-0.8051616,-1.2410149
0.4750000,0.4750000,0.4750000,-0.7620771,-0.0309945,-4.8831486,-0.7620771,-0.8165831,-1.2381284
0.4775000,0.4775000,0.4775000,-0.7791428,-0.0293169,-4.8183479,-0.7791428,-0.8271046,-1.2380125
0.4800000,0.4800000,0.4800000,-0.7953849,-0.0276850,-4.7531220,-0.7953849,-0.8367475,-1.2405568
0.4825000,0.4825000,0.4825000,-0.8107450,-0.0261052,-4.6876480,-0.8107450,-0.8455598,-1.2455651
0.4850000,0.4850000,0.4850000,-0.8251818,-0.0245819,-4.6220870,-0.8251818,-0.8536061,-1.2527672
0.4875000,0.4875000,0.4875000,-0.8386781,-0.0231165,-4.5565843,-0.8386781,-0.8609526,-1.2618373
0.4900000,0.4900000,0.4900000,-0.8512455,-0.0217081,-4.4912699,-0.8512455,-0.8676490,-1.2724190
0.4925000,0.4925000,0.4925000,-0.8629218,-0.0203535,-4.4262593,-0.8629218,-0.8737132,-1.2841505
0.4950000,0.4950000,0.4950000,-0.8737623,-0.0190479,-4.3616542,-0.8737623,-0.8791221,-1.2966883
0.4975000,0.4975000,0.4975000,-0.8838242,-0.0177868,-4.2975437,-0.8838242,-0.8838113,-1.3097250
0.5000000,0.5000000,0.5000000,-0.8931500,-0.0165664,-4.2340051,-0.8931500,-0.8876823,-1.3229988
0.5025000,0.5025000,0.5025000,-0.9017523,-0.0153848,-4.1711051,-0.9017523,-0.8906159,-1.3362943
0.5050000,0.5050000,0.5050000,-0.9096053,-0.0142424,-4.1089007,-0.9096053,-0.8924873,-1.3494379
0.5075000,0.5075000,0.5075000,-0.9166439,-0.0131417,-4.0474400,-0.9166439,-0.8931812,-1.3622878
0.5100000,0.5100000,0.5100000,-0.9227700,-0.0120870,-3.9867634,-0.9227700,-0.8926035,-1.3747256
0.5125000,0.5125000,0.5125000,-0.9278650,-0.0110836,-3.9269040,-0.9278650,-0.8906890,-1.3866497
0.5150000,0.5150000,0.5150000,-0.9318035,-0.0101369,-3.8678887,-0.9318035,-0.8874053,-1.3979740
0.5175000,0.5175000,0.5175000,-0.9344678,-0.0092518,-3.8097390,-0.9344678,-0.8827529,-1.4086301
0.5200000,0.5200000,0.5200000,-0.9357595,-0.0084322,-3.7524711,-0.9357595,-0.8767625,-1.4185706
0.5225000,0.5225000,0.5225000,-0.9356075,-0.0076805,-3.6960972,-0.9356075,-0.8694905,-1.4277714
0.5250000,0.5250000,0.5250000,-0.9339726,-0.0069977,-3.6406252,-0.9339726,-0.8610144,-1.4362289
0.5275000,0.5275000,0.5275000,-0.9308478,-0.0063833,-3.5860601,-0.9308478,-0.8514267,-1.4439526
0.5300000,0.5300000,0.5300000,-0.9262568,-0.0058357,-3.5324036,-0.9262568,-0.8408302,-1.4509538
0.5325000,0.5325000,0.5325000,-0.9202503,-0.0053520,-3.4796550,-0.9202503,-0.8293333,-1.4572321
0.5350000,0.5350000,0.5350000,-0.9129011,-0.0049286,-3.4278113,-0.9129011,-0.8170464,-1.4627651
0.5375000,0.5375000,0.5375000,-0.9042991,-0.0045615,-3.3768676,-0.9042991,-0.8040786,-1.4675011
0.5400000,0.5400000,0.5400000,-0.8945462,-0.0042460,-3.3268172,-0.8945462,-0.7905354,-1.4713582
0.5425000,0.5425000,0.5425000,-0.8837520,-0.0039777,-3.2776523,-0.8837520,-0.7765170,-1.4742285
0.5450000,0.5450000,0.5450000,-0.8720294,-0.0037518,-3.2293636,-0.8720294,-0.7621172,-1.4759873
0.5475000,0.5475000,0.5475000,-0.8594916,-0.0035640,-3.1819408,-0.8594916,-0.7474229,-1.4765036
0.5500000,0.5500000,0.5500000,-0.8462496,-0.0034098,-3.1353728,-0.8462496,-0.7325132,-1.4756525
0.5525000,0.5525000,0.5525000,-0.8324100,-0.0032852,-3.0896479,-0.8324100,-0.7174599,-1.4733247
0.5550000,0.5550000,0.5550000,-0.8180738,-0.0031866,-3.0447535,-0.8180738,-0.7023273,-1.4694347
0.5575000,0.5575000,0.5575000,-0.8033352,-0.0031105,-3.0006769,-0.8033352,-0.6871727,-1.4639257
0.5600000,0.5600000,0.5600000,-0.7882814,-0.0030537,-2.9574049,-0.7882814,-0.6720466,-1.4567720
0.5625000,0.5625000,0.5625000,-0.7729920,-0.0030135,-2.9149237,-0.7729920,-0.6569933,-1.4479785
0.5650000,0.5650000,0.5650000,-0.7575395,-0.0029874,-2.8732198,-0.7575395,-0.6420513,-1.4375784
0.5675000,0.5675000,0.5675000,-0.7419888,-0.0029731,-2.8322792,-0.7419888,-0.6272537,-1.4256302
0.5700000,0.5700000,0.5700000,-0.7263980,-0.0029686,-2.7920880,-0.7263980,-0.6126290,-1.4122130
0.5725000,0.5725000,0.5725000,-0.7108186,-0.0029723,-2.7526322,-0.7108186,-0.5982013,-1.3974222
0.5750000,0.5750000,0.5750000,-0.6952961,-0.0029826,-2.7138977,-0.6952961,-0.5839906,-1.3813651
0.5775000,0.5775000,0.5775000,-0.6798700,-0.0029982,-2.6758706,-0.6798700,-0.5700138,-1.3641569
0.5800000,0.5800000,0.5800000,-0.6645748,-0.0030179,-2.6385371,-0.6645748,-0.5562843,-1.3459167
0.5825000,0.5825000,0.5825000,-0.6494402,-0.0030407,-2.6018833,-0.6494402,-0.5428131,-1.3267651
0.5850000,0.5850000,0.5850000,-0.6344917,-0.0030659,-2.5658958,-0.6344917,-0.5296086,-1.3068210
0.5875000,0.5875000,0.5875000,-0.6197506,-0.0030927,-2.5305609,-0.6197506,-0.5166771,-1.2862000
0.5900000,0.5900000,0.5900000,-0.6052350,-0.0031204,-2.4958655,-0.6052350,-0.5040232,-1.2650128
0.5925000,0.5925000,0.5925000,-0.5909598,-0.0031486,-2.4617963,-0.5909598,-0.4916497,-1.2433641
0.5950000,0.5950000,0.5950000,-0.5769371,-0.0031767,-2.4283405,-0.5769371,-0.4795580,-1.2213519
0.5975000,0.5975000,0.5975000,-0.5631765,-0.0032045,-2.3954854,-0.5631765,-0.4677486,-1.1990670
0.6000000,0.6000000,0.6000000,-0.5496855,-0.0032317,-2.3632184,-0.5496855,-0.4562205,-1.1765929
0.6025000,0.6025000,0.6025000,-0.5364698,-0.0032579,-2.3315273,-0.5364698,-0.4449720,-1.1540058
0.6050000,0.6050000,0.6050000,-0.5235331,-0.0032830,-2.3004001,-0.5235331,-0.4340009,-1.1313747
0.6075000,0.6075000,0.6075000,-0.5108780,-0.0033069,-2.2698248,-0.5108780,-0.4233040,-1.1087616
0.6100000,0.6100000,0.6100000,-0.4985056,-0.0033294,-2.2397899,-0.4985056,-0.4128776,-1.0862222
0.6125000,0.6125000,0.6125000,-0.4864159,-0.0033503,-2.2102841,-0.4864159,-0.4027177,-1.0638055
0.6150000,0.6150000,0.6150000,-0.4746080,-0.0033698,-2.1812962,-0.4746080,-0.3928200,-1.0415552
0.6175000,0.6175000,0.6175000,-0.4630803,-0.0033876,-2.1528152,-0.4630803,-0.3831795,-1.0195093
0.6200000,0.6200000,0.6200000,-0.4518302,-0.0034038,-2.1248307,-0.4518302,-0.3737915,-0.9977010
0.6225000,0.6225000,0.6225000,-0.4408547,-0.0034184,-2.0973320,-0.4408547,-0.3646506,-0.9761589
0.6250000,0.6250000,0.6250000,-0.4301504,-0.0034313,-2.0703090,-0.4301504,-0.3557517,-0.9549075
0.6275000,0.6275000,0.6275000,-0.4197131,-0.0034427,-2.0437517,-0.4197131,-0.3470892,-0.9339674
0.6300000,0.6300000,0.6300000,-0.4095387,-0.0034524,-2.0176503,-0.4095387,-0.3386578,-0.9133561
0.6325000,0.6325000,0.6325000,-0.3996226,-0.0034606,-1.9919953,-0.3996226,-0.3304519,-0.8930878
0.6350000,0.6350000,0.6350000,-0.3899598,-0.0034672,-1.9667773,-0.3899598,-0.3224660,-0.8731741
0.6375000,0.6375000,0.6375000,-0.3805454,-0.0034723,-1.9419872,-0.3805454,-0.3146947,-0.8536241
0.6400000,0.6400000,0.6400000,-0.3713743,-0.0034760,-1.9176162,-0.3713743,-0.3071324,-0.8344447
0.6425000,0.6425000,0.6425000,-0.3624412,-0.0034783,-1.8936554,-0.3624412,-0.2997736,-0.8156409
0.6450000,0.6450000,0.6450000,-0.3537408,-0.0034793,-1.8700965,-0.3537408,-0.2926132,-0.7972160
0.6475000,0.6475000,0.6475000,-0.3452676,-0.0034789,-1.8469310,-0.3452676,-0.2856456,-0.7791717
0.6500000,0.6500000,0.6500000,-0.3370165,-0.0034773,-1.8241508,-0.3370165,-0.2788658,-0.7615086
0.6525000,0.6525000,0.6525000,-0.3289819,-0.0034745,-1.8017481,-0.3289819,-0.2722686,-0.7442259
0.6550000,0.6550000,0.6550000,-0.3211586,-0.0034706,-1.7797151,-0.3211586,-0.2658490,-0.7273218
0.6575000,0.6575000,0.6575000,-0.3135412,-0.0034655,-1.7580442,-0.3135412,-0.2596021,-0.7107939
0.6600000,0.6600000,0.6600000,-0.3061245,-0.0034595,-1.7367280,-0.3061245,-0.2535229,-0.6946386
0.6625000,0.6625000,0.6625000,-0.2989033,-0.0034524,-1.7157593,-0.2989033,-0.2476069,-0.6788520
0.6650000,0.6650000,0.6650000,-0.2918725,-0.0034444,-1.6951311,-0.2918725,-0.2418493,-0.6634296
0.6675000,0.6675000,0.6675000,-0.2850270,-0.0034355,-1.6748365,-0.2850270,-0.2362458,-0.6483662
0.6700000,0.6700000,0.6700000,-0.2783620,-0.0034258,-1.6548688,-0.2783620,-0.2307918,-0.6336564
0.6725000,0.6725000,0.6725000,-0.2718724,-0.0034152,-1.6352213,-0.2718724,-0.2254832,-0.6192945
0.6750000,0.6750000,0.6750000,-0.2655537,-0.0034039,-1.6158877,-0.2655537,-0.2203157,-0.6052744
0.6775000,0.6775000,0.6775000,-0.2594010,-0.0033919,-1.5968618,-0.2594010,-0.2152854,-0.5915899
0.6800000,0.6800000,0.6800000,-0.2534100,-0.0033792,-1.5781374,-0.2534100,-0.2103882,-0.5782346
0.6825000,0.6825000,0.6825000,-0.2475760,-0.0033659,-1.5597085,-0.2475760,-0.2056203,-0.5652019
0.6850000,0.6850000,0.6850000,-0.2418948,-0.0033520,-1.5415693,-0.2418948,-0.2009781,-0.5524851
0.6875000,0.6875000,0.6875000,-0.2363621,-0.0033376,-1.5237141,-0.2363621,-0.1964578,-0.5400777
0.6900000,0.6900000,0.6900000,-0.2309737,-0.0033226,-1.5061374,-0.2309737,-0.1920559,-0.5279728
0.6925000,0.6925000,0.6925000,-0.2257257,-0.0033071,-1.4888336,-0.2257257,-0.1877691,-0.5161637
0.6950000,0.6950000,0.6950000,-0.2206141,-0.0032912,-1.4717975,-0.2206141,-0.1835940,-0.5046438
0.6975000,0.6975000,0.6975000,-0.2156351,-0.0032749,-1.4550239,-0.2156351,-0.1795273,-0.4934063
0.7000000,0.7000000,0.7000000,-0.2107849,-0.0032582,-1.4385078,-0.2107849,-0.1755661,-0.4824446
0.7025000,0.7025000,0.7025000,-0.2060599,-0.0032411,-1.4222441,-0.2060599,-0.1717071,-0.4717522
0.7050000,0.7050000,0.7050000,-0.2014567,-0.0032236,-1.4062280,-0.2014567,-0.1679475,-0.4613226
0.7075000,0.7075000,0.7075000,-0.1969717,-0.0032059,-1.3904548,-0.1969717,-0.1642845,-0.4511493
0.7100000,0.7100000,0.7100000,-0.1926016,-0.0031879,-1.3749198,-0.1926016,-0.1607152,-0.4412261
0.7125000,0.7125000,0.7125000,-0.1883433,-0.0031696,-1.3596186,-0.1883433,-0.1572369,-0.4315467
0.7150000,0.7150000,0.7150000,-0.1841936,-0.0031511,-1.3445468,-0.1841936,-0.1538471,-0.4221050
0.7175000,0.7175000,0.7175000,-0.1801493,-0.0031324,-1.3296999,-0.1801493,-0.1505432,-0.4128952
0.7200000,0.7200000,0.7200000,-0.1762076,-0.0031134,-1.3150738,-0.1762076,-0.1473229,-0.4039111
0.7225000,0.7225000,0.7225000,-0.1723656,-0.0030943,-1.3006643,-0.1723656,-0.1441836,-0.3951473
0.7250000,0.7250000,0.7250000,-0.1686204,-0.0030751,-1.2864675,-0.1686204,-0.1411231,-0.3865978
0.7275000,0.7275000,0.7275000,-0.1649694,-0.0030557,-1.2724794,-0.1649694,-0.1381392,-0.3782574
0.7300000,0.7300000,0.7300000,-0.1614099,-0.0030362,-1.2586960,-0.1614099,-0.1352297,-0.3701205
0.7325000,0.7325000,0.7325000,-0.1579393,-0.0030165,-1.2451137,-0.1579393,-0.1323925,-0.3621819
0.7350000,0.7350000,0.7350000,-0.1545553,-0.0029968,-1.2317288,-0.1545553,-0.1296255,-0.3544365
0.7375000,0.7375000,0.7375000,-0.1512553,-0.0029770,-1.2185376,-0.1512553,-0.1269269,-0.3468791
0.7400000,0.7400000,0.7400000,-0.1480370,-0.0029571,-1.2055366,-0.1480370,-0.1242946,-0.3395050
0.7425000,0.7425000,0.7425000,-0.1448983,-0.0029372,-1.1927224,-0.1448983,-0.1217269,-0.3323093
0.7450000,0.7450000,0.7450000,-0.1418367,-0.0029173,-1.1800916,-0.1418367,-0.1192219,-0.3252874
0.7475000,0.7475000,0.7475000,-0.1388503,-0.0028973,-1.1676408,-0.1388503,-0.1167779,-0.3184347
0.7500000,0.7500000,0.7500000,-0.1359370,-0.0028773,-1.1553669,-0.1359370,-0.1143932,-0.3117468
0.7525000,0.7525000,0.7525000,-0.1330947,-0.0028572,-1.1432667,-0.1330947,-0.1120662,-0.3052193
0.7550000,0.7550000,0.7550000,-0.1303215,-0.0028372,-1.1313371,-0.1303215,-0.1097952,-0.2988482
0.7575000,0.7575000,0.7575000,-0.1276155,-0.0028172,-1.1195750,-0.1276155,-0.1075787,-0.2926291
0.7600000,0.7600000,0.7600000,-0.1249749,-0.0027972,-1.1079775,-0.1249749,-0.1054154,-0.2865583
0.7625000,0.7625000,0.7625000,-0.1223979,-0.0027773,-1.0965418,-0.1223979,-0.1033035,-0.2806317
0.7650000,0.7650000,0.7650000,-0.1198827,-0.0027574,-1.0852649,-0.1198827,-0.1012419,-0.2748456
0.7675000,0.7675000,0.7675000,-0.1174277,-0.0027375,-1.0741441,-0.1174277,-0.0992291,-0.2691964
0.7700000,0.7700000,0.7700000,-0.1150312,-0.0027177,-1.0631766,-0.1150312,-0.0972638,-0.2636805
0.7725000,0.7725000,0.7725000,-0.1126917,-0.0026979,-1.0523599,-0.1126917,-0.0953448,-0.2582943
0.7750000,0.7750000,0.7750000,-0.1104077,-0.0026782,-1.0416912,-0.1104077,-0.0934707,-0.2530345
0.7775000,0.7775000,0.7775000,-0.1081776,-0.0026585,-1.0311681,-0.1081776,-0.0916403,-0.2478979
0.7800000,0.7800000,0.7800000,-0.1060000,-0.0026390,-1.0207880,-0.1060000,-0.0898526,-0.2428811
0.7825000,0.7825000,0.7825000,-0.1038735,-0.0026195,-1.0105484,-0.1038735,-0.0881063,-0.2379812
0.7850000,0.7850000,0.7850000,-0.1017967,-0.0026000,-1.0004471,-0.1017967,-0.0864004,-0.2331949
0.7875000,0.7875000,0.7875000,-0.0997684,-0.0025807,-0.9904816,-0.0997684,-0.0847338,-0.2285195
0.7900000,0.7900000,0.7900000,-0.0977872,-0.0025615,-0.9806497,-0.0977872,-0.0831054,-0.2239521
0.7925000,0.7925000,0.7925000,-0.0958519,-0.0025423,-0.9709490,-0.0958519,-0.0815143,-0.2194898
0.7950000,0.7950000,0.7950000,-0.0939613,-0.0025233,-0.9613774,-0.0939613,-0.0799595,-0.2151299
0.7975000,0.7975000,0.7975000,-0.0921142,-0.0025043,-0.9519327,-0.0921142,-0.0784399,-0.2108699
0.8000000,0.8000000,0.8000000,-0.0903095,-0.0024855,-0.9426129,-0.0903095,-0.0769548,-0.2067072
0.8025000,0.8025000,0.8025000,-0.0885461,-0.0024668,-0.9334157,-0.0885461,-0.0755032,-0.2026392
0.8050000,0.8050000,0.8050000,-0.0868228,-0.0024481,-0.9243392,-0.0868228,-0.0740842,-0.1986635
0.8075000,0.8075000,0.8075000,-0.0851388,-0.0024296,-0.9153814,-0.0851388,-0.0726970,-0.1947778
0.8100000,0.8100000,0.8100000,-0.0834928,-0.0024112,-0.9065403,-0.0834928,-0.0713407,-0.1909799
0.8125000,0.8125000,0.8125000,-0.0818840,-0.0023929,-0.8978140,-0.0818840,-0.0700147,-0.1872674
0.8150000,0.8150000,0.8150000,-0.0803114,-0.0023747,-0.8892007,-0.0803114,-0.0687180,-0.1836382
0.8175000,0.8175000,0.8175000,-0.0787741,-0.0023567,-0.8806985,-0.0787741,-0.0674500,-0.1800902
0.8200000,0.8200000,0.8200000,-0.0772712,-0.0023388,-0.8723056,-0.0772712,-0.0662100,-0.1766214
0.8225000,0.8225000,0.8225000,-0.0758018,-0.0023209,-0.8640202,-0.0758018,-0.0649971,-0.1732297
0.8250000,0.8250000,0.8250000,-0.0743650,-0.0023033,-0.8558405,-0.0743650,-0.0638108,-0.1699133
0.8275000,0.8275000,0.8275000,-0.0729600,-0.0022857,-0.8477650,-0.0729600,-0.0626503,-0.1666702
0.8300000,0.8300000,0.8300000,-0.0715860,-0.0022682,-0.8397919,-0.0715860,-0.0615151,-0.1634987
0.8325000,0.8325000,0.8325000,-0.0702423,-0.0022509,-0.8319195,-0.0702423,-0.0604044,-0.1603969
0.8350000,0.8350000,0.8350000,-0.0689280,-0.0022337,-0.8241464,-0.0689280,-0.0593177,-0.1573630
0.8375000,0.8375000,0.8375000,-0.0676425,-0.0022167,-0.8164708,-0.0676425,-0.0582544,-0.1543955
0.8400000,0.8400000,0.8400000,-0.0663850,-0.0021997,-0.8088913,-0.0663850,-0.0572139,-0.1514927
0.8425000,0.8425000,0.8425000,-0.0651549,-0.0021829,-0.8014064,-0.0651549,-0.0561956,-0.1486530
0.8450000,0.8450000,0.8450000,-0.0639513,-0.0021662,-0.7940145,-0.0639513,-0.0551990,-0.1458747
0.8475000,0.8475000,0.8475000,-0.0627738,-0.0021497,-0.7867142,-0.0627738,-0.0542235,-0.1431566
0.8500000,0.8500000,0.8500000,-0.0616216,-0.0021333,-0.7795041,-0.0616216,-0.0532687,-0.1404969
0.8525000,0.8525000,0.8525000,-0.0604941,-0.0021170,-0.7723828,-0.0604941,-0.0523339,-0.1378944
0.8550000,0.8550000,0.8550000,-0.0593908,-0.0021008,-0.7653489,-0.0593908,-0.0514189,-0.1353477
0.8575000,0.8575000,0.8575000,-0.0583109,-0.0020848,-0.7584010,-0.0583109,-0.0505230,-0.1328553
0.8600000,0.8600000,0.8600000,-0.0572541,-0.0020689,-0.7515378,-0.0572541,-0.0496458,-0.1304160
0.8625000,0.8625000,0.8625000,-0.0562196,-0.0020531,-0.7447581,-0.0562196,-0.0487868,-0.1280284
0.8650000,0.8650000,0.8650000,-0.0552069,-0.0020374,-0.7380605,-0.0552069,-0.0479456,-0.1256914
0.8675000,0.8675000,0.8675000,-0.0542156,-0.0020219,-0.7314438,-0.0542156,-0.0471219,-0.1234038
0.8700000,0.8700000,0.8700000,-0.0532452,-0.0020065,-0.7249068,-0.0532452,-0.0463151,-0.1211643
0.8725000,0.8725000,0.8725000,-0.0522950,-0.0019913,-0.7184482,-0.0522950,-0.0455248,-0.1189717
0.8750000,0.8750000,0.8750000,-0.0513646,-0.0019761,-0.7120669,-0.0513646,-0.0447508,-0.1168251
0.8775000,0.8775000,0.8775000,-0.0504537,-0.0019611,-0.7057617,-0.0504537,-0.0439925,-0.1147232
0.8800000,0.8800000,0.8800000,-0.0495616,-0.0019462,-0.6995315,-0.0495616,-0.0432497,-0.1126651
0.8825000,0.8825000,0.8825000,-0.0486879,-0.0019314,-0.6933751,-0.0486879,-0.0425219,-0.1106497
0.8850000,0.8850000,0.8850000,-0.0478323,-0.0019168,-0.6872914,-0.0478323,-0.0418088,-0.1086759
0.8875000,0.8875000,0.8875000,-0.0469942,-0.0019023,-0.6812795,-0.0469942,-0.0411100,-0.1067429
0.8900000,0.8900000,0.8900000,-0.0461733,-0.0018879,-0.6753381,-0.0461733,-0.0404253,-0.1048496
0.8925000,0.8925000,0.8925000,-0.0453692,-0.0018736,-0.6694662,-0.0453692,-0.0397543,-0.1029952
0.8950000,0.8950000,0.8950000,-0.0445815,-0.0018595,-0.6636629,-0.0445815,-0.0390967,-0.1011786
0.8975000,0.8975000,0.8975000,-0.0438097,-0.0018455,-0.6579271,-0.0438097,-0.0384521,-0.0993991
0.9000000,0.9000000,0.9000000,-0.0430536,-0.0018316,-0.6522579,-0.0430536,-0.0378204,-0.0976558
0.9025000,0.9025000,0.9025000,-0.0423128,-0.0018178,-0.6466542,-0.0423128,-0.0372010,-0.0959479
0.9050000,0.9050000,0.9050000,-0.0415868,-0.0018041,-0.6411152,-0.0415868,-0.0365939,-0.0942744
0.9075000,0.9075000,0.9075000,-0.0408754,-0.0017906,-0.6356398,-0.0408754,-0.0359988,-0.0926347
0.9100000,0.9100000,0.9100000,-0.0401783,-0.0017772,-0.6302271,-0.0401783,-0.0354152,-0.0910280
0.9125000,0.9125000,0.9125000,-0.0394950,-0.0017639,-0.6248763,-0.0394950,-0.0348431,-0.0894535
0.9150000,0.9150000,0.9150000,-0.0388254,-0.0017507,-0.6195865,-0.0388254,-0.0342820,-0.0879104
0.9175000,0.9175000,0.9175000,-0.0381690,-0.0017376,-0.6143568,-0.0381690,-0.0337319,-0.0863982
0.9200000,0.9200000,0.9200000,-0.0375256,-0.0017247,-0.6091862,-0.0375256,-0.0331923,-0.0849159
0.9225000,0.9225000,0.9225000,-0.0368949,-0.0017118,-0.6040741,-0.0368949,-0.0326632,-0.0834631
0.9250000,0.9250000,0.9250000,-0.0362766,-0.0016991,-0.5990195,-0.0362766,-0.0321442,-0.0820390
0.9275000,0.9275000,0.9275000,-0.0356704,-0.0016865,-0.5940217,-0.0356704,-0.0316352,-0.0806430
0.9300000,0.9300000,0.9300000,-0.0350761,-0.0016740,-0.5890798,-0.0350761,-0.0311359,-0.0792744
0.9325000,0.9325000,0.9325000,-0.0344933,-0.0016616,-0.5841930,-0.0344933,-0.0306460,-0.0779326
0.9350000,0.9350000,0.9350000,-0.0339219,-0.0016493,-0.5793606,-0.0339219,-0.0301655,-0.0766171
0.9375000,0.9375000,0.9375000,-0.0333615,-0.0016371,-0.5745819,-0.0333615,-0.0296941,-0.0753272
0.9400000,0.9400000,0.9400000,-0.0328120,-0.0016251,-0.5698560,-0.0328120,-0.0292315,-0.0740624
0.9425000,0.9425000,0.9425000,-0.0322730,-0.0016131,-0.5651822,-0.0322730,-0.0287776,-0.0728222
0.9450000,0.9450000,0.9450000,-0.0317444,-0.0016012,-0.5605599,-0.0317444,-0.0283323,-0.0716059
0.9475000,0.9475000,0.9475000,-0.0312260,-0.0015895,-0.5559882,-0.0312260,-0.0278952,-0.0704131
0.9500000,0.9500000,0.9500000,-0.0307174,-0.0015778,-0.5514666,-0.0307174,-0.0274663,-0.0692432
0.9525000,0.9525000,0.9525000,-0.0302185,-0.0015663,-0.5469943,-0.0302185,-0.0270454,-0.0680957
0.9550000,0.9550000,0.9550000,-0.0297291,-0.0015549,-0.5425706,-0.0297291,-0.0266322,-0.0669703
0.9575000,0.9575000,0.9575000,-0.0292490,-0.0015435,-0.5381948,-0.0292490,-0.0262267,-0.0658662
0.9600000,0.9600000,0.9600000,-0.0287779,-0.0015323,-0.5338664,-0.0287779,-0.0258287,-0.0647832
0.9625000,0.9625000,0.9625000,-0.0283157,-0.0015212,-0.5295847,-0.0283157,-0.0254379,-0.0637208
0.9650000,0.9650000,0.9650000,-0.0278622,-0.0015101,-0.5253490,-0.0278622,-0.0250543,-0.0626784
0.9675000,0.9675000,0.9675000,-0.0274172,-0.0014992,-0.5211587,-0.0274172,-0.0246777,-0.0616558
0.9700000,0.9700000,0.9700000,-0.0269805,-0.0014884,-0.5170132,-0.0269805,-0.0243079,-0.0606523
0.9725000,0.9725000,0.9725000,-0.0265520,-0.0014776,-0.5129120,-0.0265520,-0.0239448,-0.0596678
0.9750000,0.9750000,0.9750000,-0.0261314,-0.0014670,-0.5088543,-0.0261314,-0.0235883,-0.0587016
0.9775000,0.9775000,0.9775000,-0.0257185,-0.0014564,-0.5048397,-0.0257185,-0.0232382,-0.0577535
0.9800000,0.9800000,0.9800000,-0.0253134,-0.0014460,-0.5008675,-0.0253134,-0.0228944,-0.0568231
0.9825000,0.9825000,0.9825000,-0.0249156,-0.0014356,-0.4969373,-0.0249156,-0.0225568,-0.0559099
0.9850000,0.9850000,0.9850000,-0.0245252,-0.0014253,-0.4930483,-0.0245252,-0.0222252,-0.0550137
0.9875000,0.9875000,0.9875000,-0.0241420,-0.0014152,-0.4892002,-0.0241420,-0.0218995,-0.0541340
0.9900000,0.9900000,0.9900000,-0.0237657,-0.0014051,-0.4853923,-0.0237657,-0.0215796,-0.0532706
0.9925000,0.9925000,0.9925000,-0.0233963,-0.0013951,-0.4816241,-0.0233963,-0.0212653,-0.0524230
0.9950000,0.9950000,0.9950000,-0.0230336,-0.0013852,-0.4778952,-0.0230336,-0.0209566,-0.0515910
0.9975000,0.9975000,0.9975000,-0.0226775,-0.0013753,-0.4742049,-0.0226775,-0.0206534,-0.0507742
1.0000000,1.0000000,1.0000000,-0.0223279,-0.0013656,-0.4705528,-0.0223279,-0.0203554,-0.0499723
1.0025000,1.0025000,1.0025000,-0.0219845,-0.0013560,-0.4669384,-0.0219845,-0.0200627,-0.0491849
1.0050000,1.0050000,1.0050000,-0.0216473,-0.0013464,-0.4633612,-0.0216473,-0.0197750,-0.0484119
1.0075000,1.0075000,1.0075000,-0.0213162,-0.0013369,-0.4598208,-0.0213162,-0.0194924,-0.0476529
1.0100000,1.0100000,1.0100000,-0.0209909,-0.0013275,-0.4563165,-0.0209909,-0.0192147,-0.0469076
1.0125000,1.0125000,1.0125000,-0.0206715,-0.0013182,-0.4528481,-0.0206715,-0.0189418,-0.0461757
1.0150000,1.0150000,1.0150000,-0.0203578,-0.0013090,-0.4494150,-0.0203578,-0.0186736,-0.0454569
1.0175000,1.0175000,1.0175000,-0.0200496,-0.0012998,-0.4460167,-0.0200496,-0.0184100,-0.0447511
1.0200000,1.0200000,1.0200000,-0.0197469,-0.0012908,-0.4426529,-0.0197469,-0.0181509,-0.0440578
1.0225000,1.0225000,1.0225000,-0.0194496,-0.0012818,-0.4393230,-0.0194496,-0.0178963,-0.0433769
1.0250000,1.0250000,1.0250000,-0.0191574,-0.0012729,-0.4360267,-0.0191574,-0.0176460,-0.0427082
1.0275000,1.0275000,1.0275000,-0.0188704,-0.0012641,-0.4327636,-0.0188704,-0.0173999,-0.0420512
1.0300000,1.0300000,1.0300000,-0.0185885,-0.0012553,-0.4295332,-0.0185885,-0.0171581,-0.0414060
1.0325000,1.0325000,1.0325000,-0.0183114,-0.0012466,-0.4263350,-0.0183114,-0.0169203,-0.0407721
1.0350000,1.0350000,1.0350000,-0.0180392,-0.0012380,-0.4231688,-0.0180392,-0.0166865,-0.0401494
1.0375000,1.0375000,1.0375000,-0.0177717,-0.0012295,-0.4200340,-0.0177717,-0.0164567,-0.0395376
1.0400000,1.0400000,1.0400000,-0.0175089,-0.0012211,-0.4169304,-0.0175089,-0.0162307,-0.0389365
1.0425000,1.0425000,1.0425000,-0.0172506,-0.0012127,-0.4138574,-0.0172506,-0.0160085,-0.0383460
1.0450000,1.0450000,1.0450000,-0.0169967,-0.0012044,-0.4108148,-0.0169967,-0.0157900,-0.0377657
1.0475000,1.0475000,1.0475000,-0.0167472,-0.0011962,-0.4078022,-0.0167472,-0.0155751,-0.0371955
1.0500000,1.0500000,1.0500000,-0.0165020,-0.0011880,-0.4048192,-0.0165020,-0.0153638,-0.0366353
1.0525000,1.0525000,1.0525000,-0.0162610,-0.0011799,-0.4018653,-0.0162610,-0.0151560,-0.0360847
1.0550000,1.0550000,1.0550000,-0.0160241,-0.0011719,-0.3989404,-0.0160241,-0.0149516,-0.0355436
1.0575000,1.0575000,1.0575000,-0.0157913,-0.0011640,-0.3960439,-0.0157913,-0.0147506,-0.0350119
1.0600000,1.0600000,1.0600000,-0.0155624,-0.0011561,-0.3931756,-0.0155624,-0.0145529,-0.0344893
1.0625000,1.0625000,1.0625000,-0.0153374,-0.0011483,-0.3903351,-0.0153374,-0.0143584,-0.0339757
1.0650000,1.0650000,1.0650000,-0.0151162,-0.0011405,-0.3875221,-0.0151162,-0.0141671,-0.0334708
1.0675000,1.0675000,1.0675000,-0.0148987,-0.0011329,-0.3847362,-0.0148987,-0.0139789,-0.0329746
1.0700000,1.0700000,1.0700000,-0.0146849,-0.0011252,-0.3819772,-0.0146849,-0.0137937,-0.0324868
1.0725000,1.0725000,1.0725000,-0.0144746,-0.0011177,-0.3792446,-0.0144746,-0.0136116,-0.0320073
1.0750000,1.0750000,1.0750000,-0.0142679,-0.0011102,-0.3765383,-0.0142679,-0.0134323,-0.0315359
1.0775000,1.0775000,1.0775000,-0.0140646,-0.0011028,-0.3738577,-0.0140646,-0.0132560,-0.0310725
1.0800000,1.0800000,1.0800000,-0.0138647,-0.0010955,-0.3712028,-0.0138647,-0.0130825,-0.0306169
1.0825000,1.0825000,1.0825000,-0.0136682,-0.0010882,-0.3685730,-0.0136682,-0.0129118,-0.0301690
1.0850000,1.0850000,1.0850000,-0.0134749,-0.0010810,-0.3659682,-0.0134749,-0.0127438,-0.0297285
1.0875000,1.0875000,1.0875000,-0.0132848,-0.0010738,-0.3633881,-0.0132848,-0.0125784,-0.0292955
1.0900000,1.0900000,1.0900000,-0.0130978,-0.0010667,-0.3608323,-0.0130978,-0.0124157,-0.0288697
1.0925000,1.0925000,1.0925000,-0.0129139,-0.0010597,-0.3583005,-0.0129139,-0.0122556,-0.0284510
1.0950000,1.0950000,1.0950000,-0.0127330,-0.0010527,-0.3557926,-0.0127330,-0.0120980,-0.0280392
1.0975000,1.0975000,1.0975000,-0.0125551,-0.0010457,-0.3533081,-0.0125551,-0.0119429,-0.0276343
1.1000000,1.1000000,1.1000000,-0.0123801,-0.0010389,-0.3508469,-0.0123801,-0.0117902,-0.0272361
1.1025000,1.1025000,1.1025000,-0.0122079,-0.0010321,-0.3484086,-0.0122079,-0.0116399,-0.0268445
1.1050000,1.1050000,1.1050000,-0.0120386,-0.0010253,-0.3459929,-0.0120386,-0.0114919,-0.0264593
1.1075000,1.1075000,1.1075000,-0.0118719,-0.0010186,-0.3435998,-0.0118719,-0.0113463,-0.0260804
1.1100000,1.1100000,1.1100000,-0.0117080,-0.0010120,-0.3412287,-0.0117080,-0.0112029,-0.0257078
1.1125000,1.1125000,1.1125000,-0.0115467,-0.0010054,-0.3388796,-0.0115467,-0.0110618,-0.0253412
1.1150000,1.1150000,1.1150000,-0.0113881,-0.0009989,-0.3365521,-0.0113881,-0.0109228,-0.0249807
1.1175000,1.1175000,1.1175000,-0.0112319,-0.0009924,-0.3342460,-0.0112319,-0.0107860,-0.0246260
1.1200000,1.1200000,1.1200000,-0.0110783,-0.0009860,-0.3319610,-0.0110783,-0.0106512,-0.0242771
1.1225000,1.1225000,1.1225000,-0.0109271,-0.0009797,-0.3296969,-0.0109271,-0.0105186,-0.0239338
1.1250000,1.1250000,1.1250000,-0.0107784,-0.0009734,-0.3274535,-0.0107784,-0.0103879,-0.0235961
1.1275000,1.1275000,1.1275000,-0.0106320,-0.0009671,-0.3252306,-0.0106320,-0.0102593,-0.0232639
1.1300000,1.1300000,1.1300000,-0.0104879,-0.0009609,-0.3230278,-0.0104879,-0.0101326,-0.0229370
1.1325000,1.1325000,1.1325000,-0.0103461,-0.0009548,-0.3208450,-0.0103461,-0.0100079,-0.0226153
1.1350000,1.1350000,1.1350000,-0.0102066,-0.0009487,-0.3186819,-0.0102066,-0.0098850,-0.0222988
1.1375000,1.1375000,1.1375000,-0.0100692,-0.0009426,-0.3165384,-0.0100692,-0.0097640,-0.0219874
1.1400000,1.1400000,1.1400000,-0.0099340,-0.0009366,-0.3144141,-0.0099340,-0.0096448,-0.0216809
1.1425000,1.1425000,1.1425000,-0.0098010,-0.0009307,-0.3123089,-0.0098010,-0.0095274,-0.0213794
1.1450000,1.1450000,1.1450000,-0.0096700,-0.0009248,-0.3102226,-0.0096700,-0.0094117,-0.0210826
1.1475000,1.1475000,1.1475000,-0.0095410,-0.0009189,-0.3081549,-0.0095410,-0.0092978,-0.0207905
1.1500000,1.1500000,1.1500000,-0.0094141,-0.0009131,-0.3061056,-0.0094141,-0.0091856,-0.0205031
1.1525000,1.1525000,1.1525000,-0.0092892,-0.0009074,-0.3040746,-0.0092892,-0.0090750,-0.0202202
1.1550000,1.1550000,1.1550000,-0.0091661,-0.0009017,-0.3020616,-0.0091661,-0.0089661,-0.0199417
1.1575000,1.1575000,1.1575000,-0.0090450,-0.0008960,-0.3000665,-0.0090450,-0.0088588,-0.0196677
1.1600000,1.1600000,1.1600000,-0.0089258,-0.0008904,-0.2980889,-0.0089258,-0.0087531,-0.0193979
1.1625000,1.1625000,1.1625000,-0.0088084,-0.0008848,-0.2961288,-0.0088084,-0.0086489,-0.0191323
1.1650000,1.1650000,1.1650000,-0.0086928,-0.0008793,-0.2941860,-0.0086928,-0.0085463,-0.0188709
1.1675000,1.1675000,1.1675000,-0.0085789,-0.0008738,-0.2922602,-0.0085789,-0.0084452,-0.0186136
1.1700000,1.1700000,1.1700000,-0.0084668,-0.0008684,-0.2903512,-0.0084668,-0.0083455,-0.0183603
1.1725000,1.1725000,1.1725000,-0.0083565,-0.0008630,-0.2884590,-0.0083565,-0.0082473,-0.0181109
1.1750000,1.1750000,1.1750000,-0.0082478,-0.0008576,-0.2865832,-0.0082478,-0.0081505,-0.0178654
1.1775000,1.1775000,1.1775000,-0.0081407,-0.0008523,-0.2847238,-0.0081407,-0.0080552,-0.0176236
1.1800000,1.1800000,1.1800000,-0.0080353,-0.0008471,-0.2828804,-0.0080353,-0.0079612,-0.0173856
1.1825000,1.1825000,1.1825000,-0.0079315,-0.0008419,-0.2810531,-0.0079315,-0.0078685,-0.0171513
1.1850000,1.1850000,1.1850000,-0.0078292,-0.0008367,-0.2792415,-0.0078292,-0.0077772,-0.0169206
1.1875000,1.1875000,1.1875000,-0.0077285,-0.0008315,-0.2774456,-0.0077285,-0.0076872,-0.0166934
1.1900000,1.1900000,1.1900000,-0.0076293,-0.0008265,-0.2756651,-0.0076293,-0.0075985,-0.0164696
1.1925000,1.1925000,1.1925000,-0.0075316,-0.0008214,-0.2738999,-0.0075316,-0.0075111,-0.0162493
1.1950000,1.1950000,1.1950000,-0.0074353,-0.0008164,-0.2721498,-0.0074353,-0.0074249,-0.0160324
1.1975000,1.1975000,1.1975000,-0.0073405,-0.0008114,-0.2704146,-0.0073405,-0.0073399,-0.0158187
1.2000000,1.2000000,1.2000000,-0.0072471,-0.0008065,-0.2686943,-0.0072471,-0.0072561,-0.0156083
1.2025000,1.2025000,1.2025000,-0.0071551,-0.0008016,-0.2669886,-0.0071551,-0.0071735,-0.0154011
1.2050000,1.2050000,1.2050000,-0.0070644,-0.0007967,-0.2652974,-0.0070644,-0.0070921,-0.0151970
1.2075000,1.2075000,1.2075000,-0.0069751,-0.0007919,-0.2636205,-0.0069751,-0.0070118,-0.0149959
1.2100000,1.2100000,1.2100000,-0.0068871,-0.0007871,-0.2619577,-0.0068871,-0.0069327,-0.0147979
1.2125000,1.2125000,1.2125000,-0.0068005,-0.0007824,-0.2603090,-0.0068005,-0.0068546,-0.0146029
1.2150000,1.2150000,1.2150000,-0.0067150,-0.0007777,-0.2586742,-0.0067150,-0.0067777,-0.0144108
1.2175000,1.2175000,1.2175000,-0.0066309,-0.0007730,-0.2570531,-0.0066309,-0.0067018,-0.0142216
1.2200000,1.2200000,1.2200000,-0.0065479,-0.0007684,-0.2554456,-0.0065479,-0.0066270,-0.0140352
1.2225000,1.2225000,1.2225000,-0.0064662,-0.0007638,-0.2538515,-0.0064662,-0.0065532,-0.0138516
1.2250000,1.2250000,1.2250000,-0.0063857,-0.0007593,-0.2522707,-0.0063857,-0.0064804,-0.0136707
1.2275000,1.2275000,1.2275000,-0.0063063,-0.0007547,-0.2507031,-0.0063063,-0.0064087,-0.0134924
1.2300000,1.2300000,1.2300000,-0.0062281,-0.0007502,-0.2491485,-0.0062281,-0.0063379,-0.0133169
1.2325000,1.2325000,1.2325000,-0.0061511,-0.0007458,-0.2476069,-0.0061511,-0.0062681,-0.0131439
1.2350000,1.2350000,1.2350000,-0.0060751,-0.0007414,-0.2460779,-0.0060751,-0.0061992,-0.0129734
1.2375000,1.2375000,1.2375000,-0.0060002,-0.0007370,-0.2445616,-0.0060002,-0.0061313,-0.0128055
1.2400000,1.2400000,1.2400000,-0.0059265,-0.0007327,-0.2430578,-0.0059265,-0.0060643,-0.0126400
1.2425000,1.2425000,1.2425000,-0.0058537,-0.0007283,-0.2415663,-0.0058537,-0.0059982,-0.0124770
1.2450000,1.2450000,1.2450000,-0.0057820,-0.0007241,-0.2400871,-0.0057820,-0.0059331,-0.0123164
1.2475000,1.2475000,1.2475000,-0.0057114,-0.0007198,-0.2386200,-0.0057114,-0.0058688,-0.0121581
1.2500000,1.2500000,1.2500000,-0.0056417,-0.0007156,-0.2371648,-0.0056417,-0.0058053,-0.0120021
1.2525000,1.2525000,1.2525000,-0.0055731,-0.0007114,-0.2357216,-0.0055731,-0.0057428,-0.0118483
1.2550000,1.2550000,1.2550000,-0.0055054,-0.0007073,-0.2342900,-0.0055054,-0.0056810,-0.0116968
1.2575000,1.2575000,1.2575000,-0.0054387,-0.0007031,-0.2328701,-0.0054387,-0.0056201,-0.0115475
1.2600000,1.2600000,1.2600000,-0.0053729,-0.0006991,-0.2314617,-0.0053729,-0.0055600,-0.0114004
1.2625000,1.2625000,1.2625000,-0.0053081,-0.0006950,-0.2300647,-0.0053081,-0.0055007,-0.0112554
1.2650000,1.2650000,1.2650000,-0.0052441,-0.0006910,-0.2286790,-0.0052441,-0.0054422,-0.0111124
1.2675000,1.2675000,1.2675000,-0.0051811,-0.0006870,-0.2273044,-0.0051811,-0.0053845,-0.0109716
1.2700000,1.2700000,1.2700000,-0.0051189,-0.0006830,-0.2259409,-0.0051189,-0.0053275,-0.0108327
1.2725000,1.2725000,1.2725000,-0.0050577,-0.0006791,-0.2245883,-0.0050577,-0.0052713,-0.0106958
1.2750000,1.2750000,1.2750000,-0.0049973,-0.0006752,-0.2232465,-0.0049973,-0.0052158,-0.0105609
1.2775000,1.2775000,1.2775000,-0.0049377,-0.0006713,-0.2219154,-0.0049377,-0.0051611,-0.0104279
1.2800000,1.2800000,1.2800000,-0.0048789,-0.0006675,-0.2205950,-0.0048789,-0.0051071,-0.0102968
1.2825000,1.2825000,1.2825000,-0.0048210,-0.0006636,-0.2192850,-0.0048210,-0.0050538,-0.0101676
1.2850000,1.2850000,1.2850000,-0.0047639,-0.0006599,-0.2179855,-0.0047639,-0.0050011,-0.0100402
1.2875000,1.2875000,1.2875000,-0.0047075,-0.0006561,-0.2166962,-0.0047075,-0.0049492,-0.0099146
1.2900000,1.2900000,1.2900000,-0.0046520,-0.0006524,-0.2154171,-0.0046520,-0.0048979,-0.0097908
1.2925000,1.2925000,1.2925000,-0.0045972,-0.0006487,-0.2141481,-0.0045972,-0.0048473,-0.0096687
1.2950000,1.2950000,1.2950000,-0.0045431,-0.0006450,-0.2128891,-0.0045431,-0.0047974,-0.0095484
1.2975000,1.2975000,1.2975000,-0.0044898,-0.0006413,-0.2116401,-0.0044898,-0.0047481,-0.0094297
1.3000000,1.3000000,1.3000000,-0.0044373,-0.0006377,-0.2104008,-0.0044373,-0.0046994,-0.0093127
1.3025000,1.3025000,1.3025000,-0.0043854,-0.0006341,-0.2091711,-0.0043854,-0.0046514,-0.0091973
1.3050000,1.3050000,1.3050000,-0.0043343,-0.0006305,-0.2079512,-0.0043343,-0.0046040,-0.0090836
1.3075000,1.3075000,1.3075000,-0.0042838,-0.0006270,-0.2067407,-0.0042838,-0.0045572,-0.0089714
1.3100000,1.3100000,1.3100000,-0.0042341,-0.0006235,-0.2055396,-0.0042341,-0.0045109,-0.0088608
1.3125000,1.3125000,1.3125000,-0.0041850,-0.0006200,-0.2043478,-0.0041850,-0.0044653,-0.0087518
1.3150000,1.3150000,1.3150000,-0.0041366,-0.0006165,-0.2031653,-0.0041366,-0.0044202,-0.0086442
1.3175000,1.3175000,1.3175000,-0.0040888,-0.0006131,-0.2019920,-0.0040888,-0.0043758,-0.0085382
1.3200000,1.3200000,1.3200000,-0.0040417,-0.0006097,-0.2008277,-0.0040417,-0.0043318,-0.0084336
1.3225000,1.3225000,1.3225000,-0.0039952,-0.0006063,-0.1996723,-0.0039952,-0.0042885,-0.0083304
1.3250000,1.3250000,1.3250000,-0.0039493,-0.0006029,-0.1985259,-0.0039493,-0.0042456,-0.0082287
1.3275000,1.3275000,1.3275000,-0.0039041,-0.0005996,-0.1973882,-0.0039041,-0.0042034,-0.0081284
1.3300000,1.3300000,1.3300000,-0.0038594,-0.0005963,-0.1962592,-0.0038594,-0.0041616,-0.0080294
1.3325000,1.3325000,1.3325000,-0.0038154,-0.0005930,-0.1951389,-0.0038154,-0.0041204,-0.0079318
1.3350000,1.3350000,1.3350000,-0.0037719,-0.0005897,-0.1940271,-0.0037719,-0.0040796,-0.0078355
1.3375000,1.3375000,1.3375000,-0.0037291,-0.0005865,-0.1929238,-0.0037291,-0.0040394,-0.0077406
1.3400000,1.3400000,1.3400000,-0.0036868,-0.0005833,-0.1918289,-0.0036868,-0.0039997,-0.0076469
1.3425000,1.3425000,1.3425000,-0.0036450,-0.0005801,-0.1907423,-0.0036450,-0.0039605,-0.0075545
1.3450000,1.3450000,1.3450000,-0.0036038,-0.0005769,-0.1896639,-0.0036038,-0.0039218,-0.0074634
1.3475000,1.3475000,1.3475000,-0.0035631,-0.0005738,-0.1885936,-0.0035631,-0.0038835,-0.0073735
1.3500000,1.3500000,1.3500000,-0.0035230,-0.0005706,-0.1875314,-0.0035230,-0.0038457,-0.0072848
1.3525000,1.3525000,1.3525000,-0.0034834,-0.0005675,-0.1864772,-0.0034834,-0.0038084,-0.0071973
1.3550000,1.3550000,1.3550000,-0.0034444,-0.0005644,-0.1854310,-0.0034444,-0.0037715,-0.0071110
1.3575000,1.3575000,1.3575000,-0.0034058,-0.0005614,-0.1843925,-0.0034058,-0.0037351,-0.0070259
1.3600000,1.3600000,1.3600000,-0.0033677,-0.0005583,-0.1833619,-0.0033677,-0.0036991,-0.0069419
1.3625000,1.3625000,1.3625000,-0.0033302,-0.0005553,-0.1823389,-0.0033302,-0.0036636,-0.0068590
1.3650000,1.3650000,1.3650000,-0.0032931,-0.0005523,-0.1813236,-0.0032931,-0.0036284,-0.0067773
1.3675000,1.3675000,1.3675000,-0.0032565,-0.0005494,-0.1803158,-0.0032565,-0.0035938,-0.0066966
1.3700000,1.3700000,1.3700000,-0.0032204,-0.0005464,-0.1793155,-0.0032204,-0.0035595,-0.0066170
1.3725000,1.3725000,1.3725000,-0.0031848,-0.0005435,-0.1783226,-0.0031848,-0.0035256,-0.0065385
1.3750000,1.3750000,1.3750000,-0.0031496,-0.0005406,-0.1773370,-0.0031496,-0.0034922,-0.0064610
1.3775000,1.3775000,1.3775000,-0.0031148,-0.0005377,-0.1763588,-0.0031148,-0.0034591,-0.0063845
1.3800000,1.3800000,1.3800000,-0.0030806,-0.0005348,-0.1753877,-0.0030806,-0.0034265,-0.0063091
1.3825000,1.3825000,1.3825000,-0.0030467,-0.0005320,-0.1744238,-0.0030467,-0.0033942,-0.0062346
1.3850000,1.3850000,1.3850000,-0.0030133,-0.0005291,-0.1734670,-0.0030133,-0.0033624,-0.0061611
1.3875000,1.3875000,1.3875000,-0.0029803,-0.0005263,-0.1725172,-0.0029803,-0.0033309,-0.0060886
1.3900000,1.3900000,1.3900000,-0.0029478,-0.0005235,-0.1715743,-0.0029478,-0.0032997,-0.0060171
1.3925000,1.3925000,1.3925000,-0.0029156,-0.0005208,-0.1706383,-0.0029156,-0.0032690,-0.0059465
1.3950000,1.3950000,1.3950000,-0.0028839,-0.0005180,-0.1697091,-0.0028839,-0.0032386,-0.0058768
1.3975000,1.3975000,1.3975000,-0.0028525,-0.0005153,-0.1687867,-0.0028525,-0.0032085,-0.0058080
1.4000000,1.4000000,1.4000000,-0.0028216,-0.0005126,-0.1678710,-0.0028216,-0.0031789,-0.0057402
1.4025000,1.4025000,1.4025000,-0.0027911,-0.0005099,-0.1669619,-0.0027911,-0.0031495,-0.0056732
1.4050000,1.4050000,1.4050000,-0.0027609,-0.0005072,-0.1660594,-0.0027609,-0.0031205,-0.0056071
1.4075000,1.4075000,1.4075000,-0.0027311,-0.0005045,-0.1651634,-0.0027311,-0.0030919,-0.0055418
1.4100000,1.4100000,1.4100000,-0.0027017,-0.0005019,-0.1642739,-0.0027017,-0.0030636,-0.0054774
1.4125000,1.4125000,1.4125000,-0.0026727,-0.0004993,-0.1633908,-0.0026727,-0.0030356,-0.0054138
1.4150000,1.4150000,1.4150000,-0.0026440,-0.0004967,-0.1625140,-0.0026440,-0.0030079,-0.0053511
1.4175000,1.4175000,1.4175000,-0.0026157,-0.0004941,-0.1616435,-0.0026157,-0.0029806,-0.0052892
1.4200000,1.4200000,1.4200000,-0.0025878,-0.0004915,-0.1607792,-0.0025878,-0.0029535,-0.0052280
1.4225000,1.4225000,1.4225000,-0.0025602,-0.0004890,-0.1599211,-0.0025602,-0.0029268,-0.0051677
1.4250000,1.4250000,1.4250000,-0.0025329,-0.0004865,-0.1590691,-0.0025329,-0.0029004,-0.0051081
1.4275000,1.4275000,1.4275000,-0.0025060,-0.0004839,-0.1582232,-0.0025060,-0.0028743,-0.0050493
1.4300000,1.4300000,1.4300000,-0.0024794,-0.0004814,-0.1573833,-0.0024794,-0.0028485,-0.0049912
1.4325000,1.4325000,1.4325000,-0.0024531,-0.0004790,-0.1565494,-0.0024531,-0.0028230,-0.0049339
1.4350000,1.4350000,1.4350000,-0.0024272,-0.0004765,-0.1557213,-0.0024272,-0.0027978,-0.0048773
1.4375000,1.4375000,1.4375000,-0.0024016,-0.0004741,-0.1548991,-0.0024016,-0.0027728,-0.0048215
1.4400000,1.4400000,1.4400000,-0.0023763,-0.0004716,-0.1540827,-0.0023763,-0.0027482,-0.0047663
1.4425000,1.4425000,1.4425000,-0.0023513,-0.0004692,-0.1532720,-0.0023513,-0.0027238,-0.0047119
1.4450000,1.4450000,1.4450000,-0.0023266,-0.0004668,-0.1524671,-0.0023266,-0.0026997,-0.0046581
1.4475000,1.4475000,1.4475000,-0.0023022,-0.0004644,-0.1516678,-0.0023022,-0.0026759,-0.0046050
1.4500000,1.4500000,1.4500000,-0.0022781,-0.0004621,-0.1508741,-0.0022781,-0.0026523,-0.0045526
1.4525000,1.4525000,1.4525000,-0.0022543,-0.0004597,-0.1500859,-0.0022543,-0.0026290,-0.0045009
1.4550000,1.4550000,1.4550000,-0.0022309,-0.0004574,-0.1493032,-0.0022309,-0.0026060,-0.0044498
1.4575000,1.4575000,1.4575000,-0.0022076,-0.0004551,-0.1485260,-0.0022076,-0.0025832,-0.0043994
1.4600000,1.4600000,1.4600000,-0.0021847,-0.0004528,-0.1477542,-0.0021847,-0.0025607,-0.0043496
1.4625000,1.4625000,1.4625000,-0.0021621,-0.0004505,-0.1469877,-0.0021621,-0.0025384,-0.0043004
1.4650000,1.4650000,1.4650000,-0.0021397,-0.0004482,-0.1462266,-0.0021397,-0.0025164,-0.0042518
1.4675000,1.4675000,1.4675000,-0.0021176,-0.0004460,-0.1454707,-0.0021176,-0.0024946,-0.0042038
1.4700000,1.4700000,1.4700000,-0.0020957,-0.0004437,-0.1447200,-0.0020957,-0.0024731,-0.0041565
1.4725000,1.4725000,1.4725000,-0.0020742,-0.0004415,-0.1439745,-0.0020742,-0.0024518,-0.0041097
1.4750000,1.4750000,1.4750000,-0.0020528,-0.0004393,-0.1432342,-0.0020528,-0.0024307,-0.0040635
1.4775000,1.4775000,1.4775000,-0.0020318,-0.0004371,-0.1424989,-0.0020318,-0.0024099,-0.0040179
1.4800000,1.4800000,1.4800000,-0.0020110,-0.0004349,-0.1417686,-0.0020110,-0.0023893,-0.0039728
1.4825000,1.4825000,1.4825000,-0.0019904,-0.0004327,-0.1410434,-0.0019904,-0.0023689,-0.0039283
1.4850000,1.4850000,1.4850000,-0.0019701,-0.0004306,-0.1403231,-0.0019701,-0.0023487,-0.0038844
1.4875000,1.4875000,1.4875000,-0.0019500,-0.0004284,-0.1396077,-0.0019500,-0.0023288,-0.0038410
1.4900000,1.4900000,1.4900000,-0.0019302,-0.0004263,-0.1388972,-0.0019302,-0.0023091,-0.0037981
1.4925000,1.4925000,1.4925000,-0.0019106,-0.0004242,-0.1381915,-0.0019106,-0.0022896,-0.0037558
1.4950000,1.4950000,1.4950000,-0.0018912,-0.0004221,-0.1374907,-0.0018912,-0.0022703,-0.0037140
1.4975000,1.4975000,1.4975000,-0.0018721,-0.0004200,-0.1367945,-0.0018721,-0.0022512,-0.0036727
1.5000000,1.5000000,1.5000000,-0.0018532,-0.0004180,-0.1361031,-0.0018532,-0.0022323,-0.0036319
1.5025000,1.5025000,1.5025000,-0.0018345,-0.0004159,-0.1354163,-0.0018345,-0.0022136,-0.0035916
1.5050000,1.5050000,1.5050000,-0.0018160,-0.0004139,-0.1347342,-0.0018160,-0.0021951,-0.0035518
1.5075000,1.5075000,1.5075000,-0.0017978,-0.0004118,-0.1340566,-0.0017978,-0.0021769,-0.0035125
1.5100000,1.5100000,1.5100000,-0.0017797,-0.0004098,-0.1333836,-0.0017797,-0.0021588,-0.0034736
1.5125000,1.5125000,1.5125000,-0.0017619,-0.0004078,-0.1327151,-0.0017619,-0.0021409,-0.0034353
1.5150000,1.5150000,1.5150000,-0.0017443,-0.0004058,-0.1320511,-0.0017443,-0.0021232,-0.0033974
1.5175000,1.5175000,1.5175000,-0.0017269,-0.0004038,-0.1313915,-0.0017269,-0.0021057,-0.0033599
1.5200000,1.5200000,1.5200000,-0.0017096,-0.0004019,-0.1307363,-0.0017096,-0.0020883,-0.0033229
1.5225000,1.5225000,1.5225000,-0.0016926,-0.0003999,-0.1300855,-0.0016926,-0.0020712,-0.0032864
1.5250000,1.5250000,1.5250000,-0.0016758,-0.0003980,-0.1294390,-0.0016758,-0.0020542,-0.0032503
1.5275000,1.5275000,1.5275000,-0.0016592,-0.0003961,-0.1287968,-0.0016592,-0.0020374,-0.0032147
1.5300000,1.5300000,1.5300000,-0.0016428,-0.0003942,-0.1281589,-0.0016428,-0.0020208,-0.0031794
1.5325000,1.5325000,1.5325000,-0.0016266,-0.0003922,-0.1275251,-0.0016266,-0.0020044,-0.0031446
1.5350000,1.5350000,1.5350000,-0.0016105,-0.0003904,-0.1268956,-0.0016105,-0.0019881,-0.0031102
1.5375000,1.5375000,1.5375000,-0.0015946,-0.0003885,-0.1262702,-0.0015946,-0.0019720,-0.0030762
1.5400000,1.5400000,1.5400000,-0.0015790,-0.0003866,-0.1256489,-0.0015790,-0.0019561,-0.0030427
1.5425000,1.5425000,1.5425000,-0.0015635,-0.0003848,-0.1250317,-0.0015635,-0.0019404,-0.0030095
1.5450000,1.5450000,1.5450000,-0.0015481,-0.0003829,-0.1244186,-0.0015481,-0.0019248,-0.0029767
1.5475000,1.5475000,1.5475000,-0.0015330,-0.0003811,-0.1238094,-0.0015330,-0.0019093,-0.0029444
1.5500000,1.5500000,1.5500000,-0.0015180,-0.0003793,-0.1232043,-0.0015180,-0.0018941,-0.0029124
1.5525000,1.5525000,1.5525000,-0.0015032,-0.0003775,-0.1226031,-0.0015032,-0.0018789,-0.0028807
1.5550000,1.5550000,1.5550000,-0.0014886,-0.0003757,-0.1220058,-0.0014886,-0.0018640,-0.0028495
1.5575000,1.5575000,1.5575000,-0.0014741,-0.0003739,-0.1214124,-0.0014741,-0.0018492,-0.0028186
1.5600000,1.5600000,1.5600000,-0.0014598,-0.0003721,-0.1208228,-0.0014598,-0.0018345,-0.0027881
1.5625000,1.5625000,1.5625000,-0.0014457,-0.0003703,-0.1202371,-0.0014457,-0.0018200,-0.0027580
1.5650000,1.5650000,1.5650000,-0.0014317,-0.0003686,-0.1196552,-0.0014317,-0.0018057,-0.0027282
1.5675000,1.5675000,1.5675000,-0.0014179,-0.0003669,-0.1190770,-0.0014179,-0.0017914,-0.0026988
1.5700000,1.5700000,1.5700000,-0.0014042,-0.0003651,-0.1185025,-0.0014042,-0.0017774,-0.0026697
1.5725000,1.5725000,1.5725000,-0.0013907,-0.0003634,-0.1179318,-0.0013907,-0.0017635,-0.0026409
1.5750000,1.5750000,1.5750000,-0.0013773,-0.0003617,-0.1173647,-0.0013773,-0.0017497,-0.0026125
1.5775000,1.5775000,1.5775000,-0.0013641,-0.0003600,-0.1168013,-0.0013641,-0.0017360,-0.0025844
1.5800000,1.5800000,1.5800000,-0.0013510,-0.0003583,-0.1162415,-0.0013510,-0.0017225,-0.0025567
1.5825000,1.5825000,1.5825000,-0.0013381,-0.0003566,-0.1156852,-0.0013381,-0.0017092,-0.0025293
1.5850000,1.5850000,1.5850000,-0.0013253,-0.0003550,-0.1151325,-0.0013253,-0.0016959,-0.0025022
1.5875000,1.5875000,1.5875000,-0.0013127,-0.0003533,-0.1145834,-0.0013127,-0.0016828,-0.0024754
1.5900000,1.5900000,1.5900000,-0.0013002,-0.0003517,-0.1140377,-0.0013002,-0.0016698,-0.0024489
1.5925000,1.5925000,1.5925000,-0.0012878,-0.0003500,-0.1134955,-0.0012878,-0.0016570,-0.0024227
1.5950000,1.5950000,1.5950000,-0.0012756,-0.0003484,-0.1129567,-0.0012756,-0.0016443,-0.0023969
1.5975000,1.5975000,1.5975000,-0.0012636,-0.0003468,-0.1124214,-0.0012636,-0.0016317,-0.0023713
