# r[nm],d[nm],daligned[nm],U(d)[kj/mol],V(d)[e/nm],Uslab(d)[kJ/mol],UC(d)[kJ/mol],UK(d)[kJ/mol],UCl(d)[kJ/mol]
0.1800000,0.1800000,0.1800000,1729.9497426,0.1488666,274.6371230,1729.9497426,1092.7358201,inf
0.1825000,0.1825000,0.1825000,1525.1996574,0.1426827,238.3699943,1525.1996574,962.4293256,inf
0.1850000,0.1850000,0.1850000,1345.6079085,0.1367297,206.9170953,1345.6079085,848.2007246,inf
0.1875000,0.1875000,0.1875000,1187.9612272,0.1310001,179.6020622,1187.9612272,747.9922233,inf
0.1900000,0.1900000,0.1900000,1049.4721184,0.1254861,155.8502352,1049.4721184,660.0189363,inf
0.1925000,0.1925000,0.1925000,927.7205693,0.1201805,135.1722166,927.7205693,582.7314246,inf
0.1950000,0.1950000,0.1950000,820.6039536,0.1150762,117.1503038,820.6039536,514.7834730,inf
0.1975000,0.1975000,0.1975000,726.2939434,0.1101663,101.4272523,726.2939434,455.0043735,inf
0.2000000,0.2000000,0.2000000,643.1994138,0.1054446,87.6969335,643.1994138,402.3751097,inf
0.2025000,0.2025000,0.2025000,569.9344776,0.1009058,75.6965397,569.9344776,356.0079329,inf
0.2050000,0.2050000,0.2050000,505.2909249,0.0965456,65.2000582,505.2909249,315.1288786,inf
0.2075000,0.2075000,0.2075000,448.2144696,0.0923613,56.0127929,448.2144696,279.0628068,inf
0.2100000,0.2100000,0.2100000,397.7843029,0.0883515,47.9667523,397.7843029,247.2205709,1691.8570686
0.2125000,0.2125000,0.2125000,353.1955238,0.0845157,40.9167587,353.1955238,219.0879536,1506.8958956
0.2150000,0.2150000,0.2150000,313.7440618,0.0808540,34.7371584,313.7440618,194.2160546,1342.9564173
0.2175000,0.2175000,0.2175000,278.8137298,0.0773653,29.3190344,278.8137298,172.2128809,1197.5445669
0.2200000,0.2200000,0.2200000,247.8650708,0.0740471,24.5678408,247.8650708,152.7359577,1068.4750221
0.2225000,0.2225000,0.2225000,220.4256921,0.0708943,20.4013914,220.4256921,135.4858359,953.8314380
0.2250000,0.2250000,0.2250000,196.0818299,0.0678989,16.7481460,196.0818299,120.2004090,851.9319802
0.2275000,0.2275000,0.2275000,174.4709406,0.0650509,13.5457482,174.4709406,106.6499689,761.2994216
0.2300000,0.2300000,0.2300000,155.2751757,0.0623387,10.7397758,155.2751757,94.6329300,680.6351706
0.2325000,0.2325000,0.2325000,138.2156375,0.0597502,8.2826687,138.2156375,83.9721494,608.7966946
0.2350000,0.2350000,0.2350000,123.0473444,0.0572738,6.1328089,123.0473444,74.5117664,544.7778865
0.2375000,0.2375000,0.2375000,109.5548421,0.0548987,4.2537277,109.5548421,66.1144882,487.6919944
0.2400000,0.2400000,0.2400000,97.5483990,0.0526158,2.6134222,97.5483990,58.6592559,436.7567951
0.2425000,0.2425000,0.2425000,86.8607213,0.0504176,1.1837658,86.8607213,52.0392295,391.2817317
0.2450000,0.2450000,0.2450000,77.3441216,0.0482978,-0.0600006,77.3441216,46.1600445,350.6567615
0.2475000,0.2475000,0.2475000,68.8680788,0.0462516,-1.1397059,68.8680788,40.9382971,314.3426804
0.2500000,0.2500000,0.2500000,61.3171303,0.0442751,-2.0746271,61.3171303,36.3002247,281.8627057
0.2525000,0.2525000,0.2525000,54.5890467,0.0423654,-2.8818140,54.5890467,32.1805536,252.7951185
0.2550000,0.2550000,0.2550000,48.5932463,0.0405198,-3.5763728,48.5932463,28.5214909,226.7667954
0.2575000,0.2575000,0.2575000,43.2494134,0.0387365,-4.1717152,43.2494134,25.2718399,203.4474916
0.2600000,0.2600000,0.2600000,38.4862904,0.0370135,-4.6797841,38.4862904,22.3862248,182.5447692
0.2625000,0.2625000,0.2625000,34.2406204,0.0353492,-5.1112577,34.2406204,19.8244079,163.7994957
0.2650000,0.2650000,0.2650000,30.4562180,0.0337422,-5.4757316,30.4562180,17.5506882,146.9818559
0.2675000,0.2675000,0.2675000,27.0831532,0.0321909,-5.7818700,27.0831532,15.5333676,131.8878322
0.2700000,0.2700000,0.2700000,24.0770329,0.0306941,-6.0375194,24.0770329,13.7442704,118.3361128
0.2725000,0.2725000,0.2725000,21.3983667,0.0292502,-6.2497791,21.3983667,12.1583056,106.1653857
0.2750000,0.2750000,0.2750000,19.0120072,0.0278578,-6.4250355,19.0120072,10.7530588,95.2319770
0.2775000,0.2775000,0.2775000,16.8866516,0.0265154,-6.5689695,16.8866516,9.5084141,85.4077919
0.2800000,0.2800000,0.2800000,14.9943954,0.0252211,-6.6865526,14.9943954,8.4062110,76.5785182
0.2825000,0.2825000,0.2825000,13.3103251,0.0239725,-6.7820465,13.3103251,7.4299551,68.6420572
0.2850000,0.2850000,0.2850000,11.8121429,0.0227658,-6.8590137,11.8121429,6.5646005,61.5071496
0.2875000,0.2875000,0.2875000,10.4798169,0.0215956,-6.9203486,10.4798169,5.7964177,55.0921691
0.2900000,0.2900000,0.2900000,9.2952635,0.0204542,-6.9683281,9.2952635,5.1129453,49.3240599
0.2925000,0.2925000,0.2925000,8.2420703,0.0193317,-7.0046840,8.2420703,4.5030074,44.1374003
0.2950000,0.2950000,0.2950000,7.3052740,0.0182170,-7.0306919,7.3052740,3.9567627,39.4735737
0.2975000,0.2975000,0.2975000,6.4712075,0.0170992,-7.0472679,6.4712075,3.4657442,35.2800347
0.3000000,0.3000000,0.3000000,5.7274155,0.0159695,-7.0550658,5.7274155,3.0228544,31.5096582
0.3025000,0.3025000,0.3025000,5.0626333,0.0148231,-7.0545629,5.0626333,2.6222961,28.1201606
0.3050000,0.3050000,0.3050000,4.4668049,0.0136612,-7.0461299,4.4668049,2.2594350,25.0735854
0.3075000,0.3075000,0.3075000,3.9311112,0.0124906,-7.0300826,3.9311112,1.9306133,22.3358451
0.3100000,0.3100000,0.3100000,3.4479800,0.0113237,-7.0067194,3.4479800,1.6329364,19.8763113
0.3125000,0.3125000,0.3125000,3.0110526,0.0101762,-6.9763485,3.0110526,1.3640623,17.6674469
0.3150000,0.3150000,0.3150000,2.6150991,0.0090649,-6.9393122,2.6150991,1.1220115,15.6844726
0.3175000,0.3175000,0.3175000,2.2558842,0.0080054,-6.8960119,2.2558842,0.9050132,13.9050622
0.3200000,0.3200000,0.3200000,1.9300000,0.0070093,-6.8469371,1.9300000,0.7113913,12.3090607
0.3225000,0.3225000,0.3225000,1.6346861,0.0060827,-6.7926948,1.6346861,0.5394926,10.8782243
0.3250000,0.3250000,0.3250000,1.3676542,0.0052247,-6.7340322,1.3676542,0.3876519,9.5959827
0.3275000,0.3275000,0.3275000,1.1269358,0.0044263,-6.6718362,1.1269358,0.2541864,8.4472280
0.3300000,0.3300000,0.3300000,0.9107591,0.0036701,-6.6071021,0.9107591,0.1374117,7.4181375
0.3325000,0.3325000,0.3325000,0.7174609,0.0029306,-6.5408676,0.7174609,0.0356663,6.4960361
0.3350000,0.3350000,0.3350000,0.5454302,0.0021762,-6.4741254,0.5454302,-0.0526634,5.6693011
0.3375000,0.3375000,0.3375000,0.3930800,0.0013719,-6.4077336,0.3930800,-0.1291241,4.9273082
0.3400000,0.3400000,0.3400000,0.2588395,0.0004826,-6.3423444,0.2588395,-0.1951885,4.2604110
0.3425000,0.3425000,0.3425000,0.1411577,-0.0005218,-6.2783649,0.1411577,-0.2522561,3.6599404
0.3450000,0.3450000,0.3450000,0.0385125,-0.0016634,-6.2159547,0.0385125,-0.3016619,3.1182088
0.3475000,0.3475000,0.3475000,-0.0505827,-0.0029527,-6.1550574,-0.0505827,-0.3446825,2.6285036
0.3500000,0.3500000,0.3500000,-0.1275748,-0.0043873,-6.0954572,-0.1275748,-0.3825374,2.1850557
0.3525000,0.3525000,0.3525000,-0.1938732,-0.0059525,-6.0368483,-0.1938732,-0.4163786,1.7829798
0.3550000,0.3550000,0.3550000,-0.2508514,-0.0076232,-5.9789048,-0.2508514,-0.4472696,1.4181847
0.3575000,0.3575000,0.3575000,-0.2998480,-0.0093683,-5.9213386,-0.2998480,-0.4761566,1.0872628
0.3600000,0.3600000,0.3600000,-0.3421604,-0.0111549,-5.8639389,-0.3421604,-0.5038374,0.7873669
0.3625000,0.3625000,0.3625000,-0.3790295,-0.0129530,-5.8065895,-0.3790295,-0.5309345,0.5160885
0.3650000,0.3650000,0.3650000,-0.4116172,-0.0147394,-5.7492727,-0.4116172,-0.5578777,0.2713464
0.3675000,0.3675000,0.3675000,-0.4409769,-0.0165000,-5.6920654,-0.4409769,-0.5848990,0.0512933
0.3700000,0.3700000,0.3700000,-0.4680250,-0.0182300,-5.6351337,-0.4680250,-0.6120429,-0.1457570
0.3725000,0.3725000,0.3725000,-0.4935161,-0.0199330,-5.5787261,-0.4935161,-0.6391893,-0.3213804
0.3750000,0.3750000,0.3750000,-0.5180269,-0.0216184,-5.5231595,-0.5180269,-0.6660877,-0.4770770
0.3775000,0.3775000,0.3775000,-0.5419518,-0.0232977,-5.4687928,-0.5419518,-0.6923988,-0.6142912
0.3800000,0.3800000,0.3800000,-0.5655100,-0.0249814,-5.4159864,-0.5655100,-0.7177378,-0.7344247
0.3825000,0.3825000,0.3825000,-0.5887634,-0.0266761,-5.3650532,-0.5887634,-0.7417167,-0.8388464
0.3850000,0.3850000,0.3850000,-0.6116422,-0.0283828,-5.3162125,-0.6116422,-0.7639802,-0.9289008
0.3875000,0.3875000,0.3875000,-0.6339769,-0.0300968,-5.2695592,-0.6339769,-0.7842325,-1.0059180
0.3900000,0.3900000,0.3900000,-0.6555320,-0.0318076,-5.2250558,-0.6555320,-0.8022536,-1.0712214
0.3925000,0.3925000,0.3925000,-0.6760403,-0.0335008,-5.1825466,-0.6760403,-0.8179054,-1.1261334
0.3950000,0.3950000,0.3950000,-0.6952340,-0.0351593,-5.1417881,-0.6952340,-0.8311283,-1.1719723
0.3975000,0.3975000,0.3975000,-0.7128713,-0.0367644,-5.1024849,-0.7128713,-0.8419317,-1.2100422
0.4000000,0.4000000,0.4000000,-0.7287567,-0.0382972,-5.0643228,-0.7287567,-0.8503822,-1.2416121
0.4025000,0.4025000,0.4025000,-0.7427531,-0.0397386,-5.0269934,-0.7427531,-0.8565914,-1.2678879
0.4050000,0.4050000,0.4050000,-0.7547868,-0.0410696,-4.9902105,-0.7547868,-0.8607074,-1.2899809
0.4075000,0.4075000,0.4075000,-0.7648454,-0.0422717,-4.9537189,-0.7648454,-0.8629084,-1.3088762
0.4100000,0.4100000,0.4100000,-0.7729708,-0.0433262,-4.9172978,-0.7729708,-0.8633988,-1.3254077
0.4125000,0.4125000,0.4125000,-0.7792504,-0.0442151,-4.8807603,-0.7792504,-0.8624049,-1.3402420
0.4150000,0.4150000,0.4150000,-0.7838083,-0.0449214,-4.8439503,-0.7838083,-0.8601686,-1.3538734
0.4175000,0.4175000,0.4175000,-0.7867982,-0.0454293,-4.8067389,-0.7867982,-0.8569377,-1.3666305
0.4200000,0.4200000,0.4200000,-0.7883984,-0.0457249,-4.7690212,-0.7883984,-0.8529547,-1.3786919
0.4225000,0.4225000,0.4225000,-0.7888078,-0.0457967,-4.7307144,-0.7888078,-0.8484450,-1.3901090
0.4250000,0.4250000,0.4250000,-0.7882407,-0.0456362,-4.6917565,-0.7882407,-0.8436072,-1.4008331
0.4275000,0.4275000,0.4275000,-0.7869202,-0.0452382,-4.6521039,-0.7869202,-0.8386063,-1.4107446
0.4300000,0.4300000,0.4300000,-0.7850691,-0.0446011,-4.6117289,-0.7850691,-0.8335701,-1.4196811
0.4325000,0.4325000,0.4325000,-0.7829012,-0.0437266,-4.5706149,-0.7829012,-0.8285900,-1.4274642
0.4350000,0.4350000,0.4350000,-0.7806111,-0.0426197,-4.5287524,-0.7806111,-0.8237237,-1.4339226
0.4375000,0.4375000,0.4375000,-0.7783666,-0.0412879,-4.4861357,-0.7783666,-0.8190011,-1.4389114
0.4400000,0.4400000,0.4400000,-0.7763017,-0.0397417,-4.4427608,-0.7763017,-0.8144318,-1.4423256
0.4425000,0.4425000,0.4425000,-0.7745119,-0.0379949,-4.3986254,-0.7745119,-0.8100140,-1.4441087
0.4450000,0.4450000,0.4450000,-0.7730518,-0.0360660,-4.3537302,-0.7730518,-0.8057431,-1.4442562
0.4475000,0.4475000,0.4475000,-0.7719362,-0.0339789,-4.3080814,-0.7719362,-0.8016192,-1.4428149
0.4500000,0.4500000,0.4500000,-0.7711457,-0.0317632,-4.2616930,-0.7711457,-0.7976524,-1.4398796
0.4525000,0.4525000,0.4525000,-0.7706353,-0.0294537,-4.2145890,-0.7706353,-0.7938637,-1.4355882
0.4550000,0.4550000,0.4550000,-0.7703470,-0.0270874,-4.1668040,-0.7703470,-0.7902825,-1.4301155
0.4575000,0.4575000,0.4575000,-0.7702217,-0.0247022,-4.1183843,-0.7702217,-0.7869403,-1.4236659
0.4600000,0.4600000,0.4600000,-0.7702091,-0.0223332,-4.0693866,-0.7702091,-0.7838634,-1.4164658
0.4625000,0.4625000,0.4625000,-0.7702734,-0.0200121,-4.0198770,-0.7702734,-0.7810664,-1.4087540
0.4650000,0.4650000,0.4650000,-0.7703939,-0.0177658,-3.9699294,-0.7703939,-0.7785481,-1.4007722
0.4675000,0.4675000,0.4675000,-0.7705618,-0.0156161,-3.9196228,-0.7705618,-0.7762889,-1.3927538
0.4700000,0.4700000,0.4700000,-0.7707749,-0.0135800,-3.8690402,-0.7707749,-0.7742514,-1.3849134
0.4725000,0.4725000,0.4725000,-0.7710322,-0.0116699,-3.8182658,-0.7710322,-0.7723809,-1.3774363
0.4750000,0.4750000,0.4750000,-0.7713288,-0.0098930,-3.7673836,-0.7713288,-0.7706080,-1.3704692
0.4775000,0.4775000,0.4775000,-0.7716522,-0.0082525,-3.7164757,-0.7716522,-0.7688525,-1.3641126
0.4800000,0.4800000,0.4800000,-0.7719787,-0.0067478,-3.6656212,-0.7719787,-0.7670282,-1.3584171
0.4825000,0.4825000,0.4825000,-0.7722712,-0.0053761,-3.6148953,-0.7722712,-0.7650495,-1.3533843
0.4850000,0.4850000,0.4850000,-0.7724789,-0.0041329,-3.5643682,-0.7724789,-0.7628379,-1.3489725
0.4875000,0.4875000,0.4875000,-0.7725384,-0.0030136,-3.5141052,-0.7725384,-0.7603274,-1.3451064
0.4900000,0.4900000,0.4900000,-0.7723789,-0.0020131,-3.4641660,-0.7723789,-0.7574679,-1.3416899
0.4925000,0.4925000,0.4925000,-0.7719268,-0.0011267,-3.4146048,-0.7719268,-0.7542250,-1.3386174
0.4950000,0.4950000,0.4950000,-0.7711130,-0.0003493,-3.3654702,-0.7711130,-0.7505775,-1.3357852
0.4975000,0.4975000,0.4975000,-0.7698777,0.0003242,-3.3168055,-0.7698777,-0.7465125,-1.3330984
0.5000000,0.5000000,0.5000000,-0.7681740,0.0008991,-3.2686489,-0.7681740,-0.7420206,-1.3304756
0.5025000,0.5025000,0.5025000,-0.7659684,0.0013810,-3.2210336,-0.7659684,-0.7370923,-1.3278499
0.5050000,0.5050000,0.5050000,-0.7632398,0.0017755,-3.1739882,-0.7632398,-0.7317159,-1.3251679
0.5075000,0.5075000,0.5075000,-0.7599757,0.0020884,-3.1275371,-0.7599757,-0.7258776,-1.3223860
0.5100000,0.5100000,0.5100000,-0.7561696,0.0023259,-3.0817006,-0.7561696,-0.7195630,-1.3194652
0.5125000,0.5125000,0.5125000,-0.7518178,0.0024944,-3.0364957,-0.7518178,-0.7127596,-1.3163655
0.5150000,0.5150000,0.5150000,-0.7469177,0.0026007,-2.9919357,-0.7469177,-0.7054590,-1.3130416
0.5175000,0.5175000,0.5175000,-0.7414673,0.0026521,-2.9480311,-0.7414673,-0.6976592,-1.3094403
0.5200000,0.5200000,0.5200000,-0.7354657,0.0026557,-2.9047899,-0.7354657,-0.6893658,-1.3055004
0.5225000,0.5225000,0.5225000,-0.7289143,0.0026192,-2.8622173,-0.7289143,-0.6805929,-1.3011556
0.5250000,0.5250000,0.5250000,-0.7218180,0.0025495,-2.8203167,-0.7218180,-0.6713624,-1.2963389
0.5275000,0.5275000,0.5275000,-0.7141866,0.0024536,-2.7790894,-0.7141866,-0.6617034,-1.2909873
0.5300000,0.5300000,0.5300000,-0.7060355,0.0023376,-2.7385349,-0.7060355,-0.6516513,-1.2850464
0.5325000,0.5325000,0.5325000,-0.6973859,0.0022070,-2.6986514,-0.6973859,-0.6412459,-1.2784736
0.5350000,0.5350000,0.5350000,-0.6882649,0.0020668,-2.6594358,-0.6882649,-0.6305304,-1.2712386
0.5375000,0.5375000,0.5375000,-0.6787047,0.0019208,-2.6208836,-0.6787047,-0.6195495,-1.2633237
0.5400000,0.5400000,0.5400000,-0.6687419,0.0017724,-2.5829895,-0.6687419,-0.6083487,-1.2547214
0.5425000,0.5425000,0.5425000,-0.6584165,0.0016243,-2.5457474,-0.6584165,-0.5969729,-1.2454320
0.5450000,0.5450000,0.5450000,-0.6477708,0.0014784,-2.5091503,-0.6477708,-0.5854654,-1.2354620
0.5475000,0.5475000,0.5475000,-0.6368483,0.0013364,-2.4731905,-0.6368483,-0.5738677,-1.2248215
0.5500000,0.5500000,0.5500000,-0.6256928,0.0011993,-2.4378601,-0.6256928,-0.5622186,-1.2135234
0.5525000,0.5525000,0.5525000,-0.6143474,0.0010678,-2.4031504,-0.6143474,-0.5505540,-1.2015828
0.5550000,0.5550000,0.5550000,-0.6028541,0.0009423,-2.3690524,-0.6028541,-0.5389069,-1.1890171
0.5575000,0.5575000,0.5575000,-0.5912530,0.0008231,-2.3355571,-0.5912530,-0.5273070,-1.1758463
0.5600000,0.5600000,0.5600000,-0.5795819,0.0007103,-2.3026548,-0.5795819,-0.5157811,-1.1620935
0.5625000,0.5625000,0.5625000,-0.5678761,0.0006037,-2.2703360,-0.5678761,-0.5043528,-1.1477855
0.5650000,0.5650000,0.5650000,-0.5561681,0.0005032,-2.2385908,-0.5561681,-0.4930429,-1.1329527
0.5675000,0.5675000,0.5675000,-0.5444876,0.0004086,-2.2074093,-0.5444876,-0.4818695,-1.1176294
0.5700000,0.5700000,0.5700000,-0.5328617,0.0003196,-2.1767818,-0.5328617,-0.4708482,-1.1018534
0.5725000,0.5725000,0.5725000,-0.5213144,0.0002359,-2.1466980,-0.5213144,-0.4599922,-1.0856657
0.5750000,0.5750000,0.5750000,-0.5098672,0.0001571,-2.1171482,-0.5098672,-0.4493125,-1.0691096
0.5775000,0.5775000,0.5775000,-0.4985390,0.0000831,-2.0881223,-0.4985390,-0.4388184,-1.0522303
0.5800000,0.5800000,0.5800000,-0.4873464,0.0000136,-2.0596105,-0.4873464,-0.4285171,-1.0350742
0.5825000,0.5825000,0.5825000,-0.4763035,-0.0000519,-2.0316030,-0.4763035,-0.4184145,-1.0176878
0.5850000,0.5850000,0.5850000,-0.4654227,-0.0001134,-2.0040901,-0.4654227,-0.4085151,-1.0001173
0.5875000,0.5875000,0.5875000,-0.4547142,-0.0001714,-1.9770621,-0.4547142,-0.3988220,-0.9824079
0.5900000,0.5900000,0.5900000,-0.4441866,-0.0002259,-1.9505096,-0.4441866,-0.3893372,-0.9646034
0.5925000,0.5925000,0.5925000,-0.4338469,-0.0002772,-1.9244231,-0.4338469,-0.3800619,-0.9467456
0.5950000,0.5950000,0.5950000,-0.4237005,-0.0003256,-1.8987934,-0.4237005,-0.3709964,-0.9288739
0.5975000,0.5975000,0.5975000,-0.4137519,-0.0003712,-1.8736113,-0.4137519,-0.3621401,-0.9110255
0.6000000,0.6000000,0.6000000,-0.4040042,-0.0004142,-1.8488680,-0.4040042,-0.3534921,-0.8932347
0.6025000,0.6025000,0.6025000,-0.3944596,-0.0004547,-1.8245545,-0.3944596,-0.3450506,-0.8755331
0.6050000,0.6050000,0.6050000,-0.3851192,-0.0004929,-1.8006622,-0.3851192,-0.3368135,-0.8579496
0.6075000,0.6075000,0.6075000,-0.3759836,-0.0005289,-1.7771826,-0.3759836,-0.3287783,-0.8405102
0.6100000,0.6100000,0.6100000,-0.3670526,-0.0005629,-1.7541074,-0.3670526,-0.3209422,-0.8232384
0.6125000,0.6125000,0.6125000,-0.3583253,-0.0005950,-1.7314282,-0.3583253,-0.3133021,-0.8061550
0.6150000,0.6150000,0.6150000,-0.3498004,-0.0006252,-1.7091371,-0.3498004,-0.3058546,-0.7892784
0.6175000,0.6175000,0.6175000,-0.3414761,-0.0006537,-1.6872261,-0.3414761,-0.2985962,-0.7726246
0.6200000,0.6200000,0.6200000,-0.3333502,-0.0006805,-1.6656876,-0.3333502,-0.2915232,-0.7562075
0.6225000,0.6225000,0.6225000,-0.3254202,-0.0007058,-1.6445139,-0.3254202,-0.2846318,-0.7400389
0.6250000,0.6250000,0.6250000,-0.3176832,-0.0007297,-1.6236977,-0.3176832,-0.2779181,-0.7241287
0.6275000,0.6275000,0.6275000,-0.3101363,-0.0007521,-1.6032317,-0.3101363,-0.2713782,-0.7084852
0.6300000,0.6300000,0.6300000,-0.3027763,-0.0007732,-1.5831087,-0.3027763,-0.2650082,-0.6931150
0.6325000,0.6325000,0.6325000,-0.2955997,-0.0007931,-1.5633219,-0.2955997,-0.2588040,-0.6780234
0.6350000,0.6350000,0.6350000,-0.2886031,-0.0008118,-1.5438643,-0.2886031,-0.2527616,-0.6632142
0.6375000,0.6375000,0.6375000,-0.2817828,-0.0008293,-1.5247294,-0.2817828,-0.2468771,-0.6486902
0.6400000,0.6400000,0.6400000,-0.2751352,-0.0008457,-1.5059106,-0.2751352,-0.2411465,-0.6344532
0.6425000,0.6425000,0.6425000,-0.2686566,-0.0008611,-1.4874015,-0.2686566,-0.2355659,-0.6205037
0.6450000,0.6450000,0.6450000,-0.2623431,-0.0008756,-1.4691960,-0.2623431,-0.2301315,-0.6068418
0.6475000,0.6475000,0.6475000,-0.2561911,-0.0008890,-1.4512879,-0.2561911,-0.2248394,-0.5934666
0.6500000,0.6500000,0.6500000,-0.2501968,-0.0009016,-1.4336713,-0.2501968,-0.2196858,-0.5803767
0.6525000,0.6525000,0.6525000,-0.2443564,-0.0009133,-1.4163403,-0.2443564,-0.2146671,-0.5675700
0.6550000,0.6550000,0.6550000,-0.2386662,-0.0009243,-1.3992892,-0.2386662,-0.2097796,-0.5550440
0.6575000,0.6575000,0.6575000,-0.2331224,-0.0009344,-1.3825125,-0.2331224,-0.2050198,-0.5427955
0.6600000,0.6600000,0.6600000,-0.2277214,-0.0009438,-1.3660048,-0.2277214,-0.2003842,-0.5308214
0.6625000,0.6625000,0.6625000,-0.2224596,-0.0009525,-1.3497607,-0.2224596,-0.1958694,-0.5191179
0.6650000,0.6650000,0.6650000,-0.2173335,-0.0009605,-1.3337750,-0.2173335,-0.1914721,-0.5076810
0.6675000,0.6675000,0.6675000,-0.2123394,-0.0009678,-1.3180426,-0.2123394,-0.1871890,-0.4965066
0.6700000,0.6700000,0.6700000,-0.2074740,-0.0009746,-1.3025586,-0.2074740,-0.1830169,-0.4855902
0.6725000,0.6725000,0.6725000,-0.2027339,-0.0009808,-1.2873181,-0.2027339,-0.1789527,-0.4749274
0.6750000,0.6750000,0.6750000,-0.1981157,-0.0009864,-1.2723163,-0.1981157,-0.1749935,-0.4645135
0.6775000,0.6775000,0.6775000,-0.1936163,-0.0009914,-1.2575487,-0.1936163,-0.1711363,-0.4543438
0.6800000,0.6800000,0.6800000,-0.1892324,-0.0009960,-1.2430106,-0.1892324,-0.1673782,-0.4444134
0.6825000,0.6825000,0.6825000,-0.1849609,-0.0010000,-1.2286977,-0.1849609,-0.1637165,-0.4347175
0.6850000,0.6850000,0.6850000,-0.1807987,-0.0010036,-1.2146056,-0.1807987,-0.1601484,-0.4252512
0.6875000,0.6875000,0.6875000,-0.1767430,-0.0010068,-1.2007300,-0.1767430,-0.1566713,-0.4160095
0.6900000,0.6900000,0.6900000,-0.1727908,-0.0010095,-1.1870669,-0.1727908,-0.1532827,-0.4069877
0.6925000,0.6925000,0.6925000,-0.1689393,-0.0010118,-1.1736121,-0.1689393,-0.1499800,-0.3981808
0.6950000,0.6950000,0.6950000,-0.1651858,-0.0010137,-1.1603618,-0.1651858,-0.1467609,-0.3895839
0.6975000,0.6975000,0.6975000,-0.1615275,-0.0010153,-1.1473120,-0.1615275,-0.1436230,-0.3811923
0.7000000,0.7000000,0.7000000,-0.1579619,-0.0010165,-1.1344590,-0.1579619,-0.1405640,-0.3730012
0.7025000,0.7025000,0.7025000,-0.1544864,-0.0010174,-1.1217990,-0.1544864,-0.1375817,-0.3650059
0.7050000,0.7050000,0.7050000,-0.1510985,-0.0010180,-1.1093285,-0.1510985,-0.1346740,-0.3572018
0.7075000,0.7075000,0.7075000,-0.1477958,-0.0010182,-1.0970438,-0.1477958,-0.1318388,-0.3495842
0.7100000,0.7100000,0.7100000,-0.1445760,-0.0010182,-1.0849416,-0.1445760,-0.1290739,-0.3421487
0.7125000,0.7125000,0.7125000,-0.1414369,-0.0010179,-1.0730184,-0.1414369,-0.1263776,-0.3348908
0.7150000,0.7150000,0.7150000,-0.1383761,-0.0010173,-1.0612710,-0.1383761,-0.1237478,-0.3278062
0.7175000,0.7175000,0.7175000,-0.1353915,-0.0010165,-1.0496961,-0.1353915,-0.1211828,-0.3208906
0.7200000,0.7200000,0.7200000,-0.1324811,-0.0010154,-1.0382905,-0.1324811,-0.1186806,-0.3141399
0.7225000,0.7225000,0.7225000,-0.1296429,-0.0010141,-1.0270511,-0.1296429,-0.1162397,-0.3075499
0.7250000,0.7250000,0.7250000,-0.1268747,-0.0010126,-1.0159749,-0.1268747,-0.1138582,-0.3011166
0.7275000,0.7275000,0.7275000,-0.1241748,-0.0010109,-1.0050590,-0.1241748,-0.1115345,-0.2948361
0.7300000,0.7300000,0.7300000,-0.1215412,-0.0010090,-0.9943004,-0.1215412,-0.1092671,-0.2887045
0.7325000,0.7325000,0.7325000,-0.1189721,-0.0010069,-0.9836963,-0.1189721,-0.1070544,-0.2827181
0.7350000,0.7350000,0.7350000,-0.1164658,-0.0010046,-0.9732439,-0.1164658,-0.1048949,-0.2768732
0.7375000,0.7375000,0.7375000,-0.1140206,-0.0010022,-0.9629405,-0.1140206,-0.1027872,-0.2711663
0.7400000,0.7400000,0.7400000,-0.1116348,-0.0009996,-0.9527834,-0.1116348,-0.1007298,-0.2655938
0.7425000,0.7425000,0.7425000,-0.1093068,-0.0009969,-0.9427701,-0.1093068,-0.0987213,-0.2601522
0.7450000,0.7450000,0.7450000,-0.1070350,-0.0009940,-0.9328979,-0.1070350,-0.0967605,-0.2548383
0.7475000,0.7475000,0.7475000,-0.1048179,-0.0009910,-0.9231644,-0.1048179,-0.0948460,-0.2496489
0.7500000,0.7500000,0.7500000,-0.1026540,-0.0009878,-0.9135672,-0.1026540,-0.0929767,-0.2445807
0.7525000,0.7525000,0.7525000,-0.1005420,-0.0009846,-0.9041038,-0.1005420,-0.0911512,-0.2396307
0.7550000,0.7550000,0.7550000,-0.0984803,-0.0009812,-0.8947719,-0.0984803,-0.0893684,-0.2347958
0.7575000,0.7575000,0.7575000,-0.0964677,-0.0009777,-0.8855692,-0.0964677,-0.0876272,-0.2300731
0.7600000,0.7600000,0.7600000,-0.0945029,-0.0009741,-0.8764935,-0.0945029,-0.0859264,-0.2254597
0.7625000,0.7625000,0.7625000,-0.0925845,-0.0009704,-0.8675426,-0.0925845,-0.0842650,-0.2209530
0.7650000,0.7650000,0.7650000,-0.0907113,-0.0009667,-0.8587143,-0.0907113,-0.0826420,-0.2165500
0.7675000,0.7675000,0.7675000,-0.0888822,-0.0009628,-0.8500066,-0.0888822,-0.0810562,-0.2122483
0.7700000,0.7700000,0.7700000,-0.0870959,-0.0009589,-0.8414172,-0.0870959,-0.0795068,-0.2080452
0.7725000,0.7725000,0.7725000,-0.0853513,-0.0009549,-0.8329444,-0.0853513,-0.0779928,-0.2039382
0.7750000,0.7750000,0.7750000,-0.0836474,-0.0009508,-0.8245859,-0.0836474,-0.0765132,-0.1999249
0.7775000,0.7775000,0.7775000,-0.0819830,-0.0009466,-0.8163400,-0.0819830,-0.0750672,-0.1960030
0.7800000,0.7800000,0.7800000,-0.0803572,-0.0009424,-0.8082047,-0.0803572,-0.0736538,-0.1921700
0.7825000,0.7825000,0.7825000,-0.0787688,-0.0009382,-0.8001781,-0.0787688,-0.0722722,-0.1884238
0.7850000,0.7850000,0.7850000,-0.0772170,-0.0009339,-0.7922584,-0.0772170,-0.0709217,-0.1847621
0.7875000,0.7875000,0.7875000,-0.0757008,-0.0009295,-0.7844439,-0.0757008,-0.0696014,-0.1811828
0.7900000,0.7900000,0.7900000,-0.0742192,-0.0009251,-0.7767328,-0.0742192,-0.0683105,-0.1776840
0.7925000,0.7925000,0.7925000,-0.0727714,-0.0009207,-0.7691233,-0.0727714,-0.0670482,-0.1742634
0.7950000,0.7950000,0.7950000,-0.0713565,-0.0009162,-0.7616138,-0.0713565,-0.0658139,-0.1709192
0.7975000,0.7975000,0.7975000,-0.0699736,-0.0009117,-0.7542027,-0.0699736,-0.0646068,-0.1676495
0.8000000,0.8000000,0.8000000,-0.0686219,-0.0009071,-0.7468883,-0.0686219,-0.0634262,-0.1644524
0.8025000,0.8025000,0.8025000,-0.0673007,-0.0009025,-0.7396690,-0.0673007,-0.0622715,-0.1613260
0.8050000,0.8050000,0.8050000,-0.0660090,-0.0008979,-0.7325432,-0.0660090,-0.0611420,-0.1582687
0.8075000,0.8075000,0.8075000,-0.0647463,-0.0008933,-0.7255096,-0.0647463,-0.0600371,-0.1552787
0.8100000,0.8100000,0.8100000,-0.0635117,-0.0008886,-0.7185665,-0.0635117,-0.0589561,-0.1523544
0.8125000,0.8125000,0.8125000,-0.0623046,-0.0008839,-0.7117125,-0.0623046,-0.0578984,-0.1494940
0.8150000,0.8150000,0.8150000,-0.0611242,-0.0008793,-0.7049461,-0.0611242,-0.0568636,-0.1466961
0.8175000,0.8175000,0.8175000,-0.0599698,-0.0008745,-0.6982661,-0.0599698,-0.0558509,-0.1439592
0.8200000,0.8200000,0.8200000,-0.0588409,-0.0008698,-0.6916708,-0.0588409,-0.0548599,-0.1412816
0.8225000,0.8225000,0.8225000,-0.0577368,-0.0008651,-0.6851592,-0.0577368,-0.0538900,-0.1386619
0.8250000,0.8250000,0.8250000,-0.0566568,-0.0008604,-0.6787297,-0.0566568,-0.0529407,-0.1360988
0.8275000,0.8275000,0.8275000,-0.0556004,-0.0008556,-0.6723811,-0.0556004,-0.0520115,-0.1335909
0.8300000,0.8300000,0.8300000,-0.0545669,-0.0008509,-0.6661121,-0.0545669,-0.0511019,-0.1311368
0.8325000,0.8325000,0.8325000,-0.0535559,-0.0008461,-0.6599214,-0.0535559,-0.0502114,-0.1287351
0.8350000,0.8350000,0.8350000,-0.0525667,-0.0008414,-0.6538079,-0.0525667,-0.0493396,-0.1263847
0.8375000,0.8375000,0.8375000,-0.0515989,-0.0008366,-0.6477703,-0.0515989,-0.0484860,-0.1240843
0.8400000,0.8400000,0.8400000,-0.0506518,-0.0008318,-0.6418075,-0.0506518,-0.0476501,-0.1218327
0.8425000,0.8425000,0.8425000,-0.0497250,-0.0008271,-0.6359182,-0.0497250,-0.0468316,-0.1196287
0.8450000,0.8450000,0.8450000,-0.0488180,-0.0008223,-0.6301014,-0.0488180,-0.0460300,-0.1174712
0.8475000,0.8475000,0.8475000,-0.0479303,-0.0008176,-0.6243559,-0.0479303,-0.0452449,-0.1153591
0.8500000,0.8500000,0.8500000,-0.0470614,-0.0008129,-0.6186806,-0.0470614,-0.0444759,-0.1132912
0.8525000,0.8525000,0.8525000,-0.0462109,-0.0008081,-0.6130744,-0.0462109,-0.0437227,-0.1112666
0.8550000,0.8550000,0.8550000,-0.0453784,-0.0008034,-0.6075364,-0.0453784,-0.0429848,-0.1092841
0.8575000,0.8575000,0.8575000,-0.0445633,-0.0007987,-0.6020653,-0.0445633,-0.0422619,-0.1073429
0.8600000,0.8600000,0.8600000,-0.0437654,-0.0007940,-0.5966603,-0.0437654,-0.0415537,-0.1054419
0.8625000,0.8625000,0.8625000,-0.0429841,-0.0007893,-0.5913204,-0.0429841,-0.0408598,-0.1035801
0.8650000,0.8650000,0.8650000,-0.0422191,-0.0007846,-0.5860445,-0.0422191,-0.0401798,-0.1017568
0.8675000,0.8675000,0.8675000,-0.0414700,-0.0007800,-0.5808316,-0.0414700,-0.0395135,-0.0999708
0.8700000,0.8700000,0.8700000,-0.0407364,-0.0007753,-0.5756809,-0.0407364,-0.0388605,-0.0982215
0.8725000,0.8725000,0.8725000,-0.0400180,-0.0007707,-0.5705914,-0.0400180,-0.0382205,-0.0965079
0.8750000,0.8750000,0.8750000,-0.0393143,-0.0007661,-0.5655622,-0.0393143,-0.0375933,-0.0948292
0.8775000,0.8775000,0.8775000,-0.0386251,-0.0007614,-0.5605923,-0.0386251,-0.0369784,-0.0931846
0.8800000,0.8800000,0.8800000,-0.0379500,-0.0007569,-0.5556810,-0.0379500,-0.0363757,-0.0915733
0.8825000,0.8825000,0.8825000,-0.0372887,-0.0007523,-0.5508274,-0.0372887,-0.0357849,-0.0899945
0.8850000,0.8850000,0.8850000,-0.0366409,-0.0007477,-0.5460305,-0.0366409,-0.0352056,-0.0884476
0.8875000,0.8875000,0.8875000,-0.0360062,-0.0007432,-0.5412896,-0.0360062,-0.0346377,-0.0869316
0.8900000,0.8900000,0.8900000,-0.0353843,-0.0007387,-0.5366038,-0.0353843,-0.0340808,-0.0854461
0.8925000,0.8925000,0.8925000,-0.0347750,-0.0007342,-0.5319724,-0.0347750,-0.0335347,-0.0839901
0.8950000,0.8950000,0.8950000,-0.0341779,-0.0007297,-0.5273945,-0.0341779,-0.0329992,-0.0825632
0.8975000,0.8975000,0.8975000,-0.0335928,-0.0007252,-0.5228694,-0.0335928,-0.0324741,-0.0811646
0.9000000,0.9000000,0.9000000,-0.0330194,-0.0007208,-0.5183963,-0.0330194,-0.0319590,-0.0797936
0.9025000,0.9025000,0.9025000,-0.0324574,-0.0007164,-0.5139745,-0.0324574,-0.0314538,-0.0784497
0.9050000,0.9050000,0.9050000,-0.0319066,-0.0007120,-0.5096032,-0.0319066,-0.0309583,-0.0771323
0.9075000,0.9075000,0.9075000,-0.0313667,-0.0007076,-0.5052816,-0.0313667,-0.0304722,-0.0758407
0.9100000,0.9100000,0.9100000,-0.0308375,-0.0007033,-0.5010092,-0.0308375,-0.0299954,-0.0745744
0.9125000,0.9125000,0.9125000,-0.0303187,-0.0006989,-0.4967851,-0.0303187,-0.0295276,-0.0733328
0.9150000,0.9150000,0.9150000,-0.0298101,-0.0006946,-0.4926088,-0.0298101,-0.0290686,-0.0721153
0.9175000,0.9175000,0.9175000,-0.0293114,-0.0006904,-0.4884794,-0.0293114,-0.0286182,-0.0709215
0.9200000,0.9200000,0.9200000,-0.0288225,-0.0006861,-0.4843964,-0.0288225,-0.0281763,-0.0697508
0.9225000,0.9225000,0.9225000,-0.0283432,-0.0006819,-0.4803591,-0.0283432,-0.0277427,-0.0686026
0.9250000,0.9250000,0.9250000,-0.0278731,-0.0006776,-0.4763669,-0.0278731,-0.0273171,-0.0674766
0.9275000,0.9275000,0.9275000,-0.0274122,-0.0006734,-0.4724191,-0.0274122,-0.0268994,-0.0663722
0.9300000,0.9300000,0.9300000,-0.0269601,-0.0006693,-0.4685151,-0.0269601,-0.0264895,-0.0652888
0.9325000,0.9325000,0.9325000,-0.0265168,-0.0006651,-0.4646543,-0.0265168,-0.0260871,-0.0642262
0.9350000,0.9350000,0.9350000,-0.0260819,-0.0006610,-0.4608361,-0.0260819,-0.0256922,-0.0631838
0.9375000,0.9375000,0.9375000,-0.0256554,-0.0006569,-0.4570599,-0.0256554,-0.0253045,-0.0621611
0.9400000,0.9400000,0.9400000,-0.0252371,-0.0006528,-0.4533252,-0.0252371,-0.0249239,-0.0611579
0.9425000,0.9425000,0.9425000,-0.0248267,-0.0006488,-0.4496313,-0.0248267,-0.0245502,-0.0601735
0.9450000,0.9450000,0.9450000,-0.0244241,-0.0006448,-0.4459776,-0.0244241,-0.0241834,-0.0592077
0.9475000,0.9475000,0.9475000,-0.0240291,-0.0006408,-0.4423638,-0.0240291,-0.0238231,-0.0582600
0.9500000,0.9500000,0.9500000,-0.0236416,-0.0006368,-0.4387891,-0.0236416,-0.0234694,-0.0573300
0.9525000,0.9525000,0.9525000,-0.0232614,-0.0006328,-0.4352531,-0.0232614,-0.0231221,-0.0564174
0.9550000,0.9550000,0.9550000,-0.0228884,-0.0006289,-0.4317553,-0.0228884,-0.0227810,-0.0555217
0.9575000,0.9575000,0.9575000,-0.0225223,-0.0006250,-0.4282951,-0.0225223,-0.0224460,-0.0546427
0.9600000,0.9600000,0.9600000,-0.0221631,-0.0006211,-0.4248720,-0.0221631,-0.0221170,-0.0537800
0.9625000,0.9625000,0.9625000,-0.0218105,-0.0006173,-0.4214855,-0.0218105,-0.0217938,-0.0529332
0.9650000,0.9650000,0.9650000,-0.0214645,-0.0006134,-0.4181351,-0.0214645,-0.0214764,-0.0521020
0.9675000,0.9675000,0.9675000,-0.0211250,-0.0006096,-0.4148204,-0.0211250,-0.0211646,-0.0512860
0.9700000,0.9700000,0.9700000,-0.0207917,-0.0006059,-0.4115409,-0.0207917,-0.0208583,-0.0504850
0.9725000,0.9725000,0.9725000,-0.0204645,-0.0006021,-0.4082961,-0.0204645,-0.0205574,-0.0496987
0.9750000,0.9750000,0.9750000,-0.0201434,-0.0005984,-0.4050855,-0.0201434,-0.0202618,-0.0489266
0.9775000,0.9775000,0.9775000,-0.0198281,-0.0005947,-0.4019087,-0.0198281,-0.0199713,-0.0481686
0.9800000,0.9800000,0.9800000,-0.0195186,-0.0005910,-0.3987652,-0.0195186,-0.0196859,-0.0474243
0.9825000,0.9825000,0.9825000,-0.0192147,-0.0005873,-0.3956547,-0.0192147,-0.0194055,-0.0466934
0.9850000,0.9850000,0.9850000,-0.0189164,-0.0005837,-0.3925766,-0.0189164,-0.0191299,-0.0459758
0.9875000,0.9875000,0.9875000,-0.0186235,-0.0005801,-0.3895305,-0.0186235,-0.0188591,-0.0452710
0.9900000,0.9900000,0.9900000,-0.0183359,-0.0005765,-0.3865161,-0.0183359,-0.0185929,-0.0445789
0.9925000,0.9925000,0.9925000,-0.0180534,-0.0005729,-0.3835329,-0.0180534,-0.0183314,-0.0438991
0.9950000,0.9950000,0.9950000,-0.0177761,-0.0005694,-0.3805805,-0.0177761,-0.0180743,-0.0432315
0.9975000,0.9975000,0.9975000,-0.0175037,-0.0005659,-0.3776585,-0.0175037,-0.0178216,-0.0425757
1.0000000,1.0000000,1.0000000,-0.0172362,-0.0005624,-0.3747665,-0.0172362,-0.0175732,-0.0419316
1.0025000,1.0025000,1.0025000,-0.0169735,-0.0005589,-0.3719042,-0.0169735,-0.0173290,-0.0412988
1.0050000,1.0050000,1.0050000,-0.0167154,-0.0005555,-0.3690711,-0.0167154,-0.0170889,-0.0406772
1.0075000,1.0075000,1.0075000,-0.0164620,-0.0005521,-0.3662669,-0.0164620,-0.0168529,-0.0400666
1.0100000,1.0100000,1.0100000,-0.0162130,-0.0005487,-0.3634912,-0.0162130,-0.0166209,-0.0394667
1.0125000,1.0125000,1.0125000,-0.0159684,-0.0005453,-0.3607436,-0.0159684,-0.0163928,-0.0388773
1.0150000,1.0150000,1.0150000,-0.0157282,-0.0005419,-0.3580239,-0.0157282,-0.0161684,-0.0382982
1.0175000,1.0175000,1.0175000,-0.0154921,-0.0005386,-0.3553315,-0.0154921,-0.0159479,-0.0377291
1.0200000,1.0200000,1.0200000,-0.0152602,-0.0005353,-0.3526662,-0.0152602,-0.0157310,-0.0371700
1.0225000,1.0225000,1.0225000,-0.0150324,-0.0005320,-0.3500277,-0.0150324,-0.0155177,-0.0366206
1.0250000,1.0250000,1.0250000,-0.0148085,-0.0005288,-0.3474156,-0.0148085,-0.0153079,-0.0360806
1.0275000,1.0275000,1.0275000,-0.0145885,-0.0005255,-0.3448296,-0.0145885,-0.0151016,-0.0355500
1.0300000,1.0300000,1.0300000,-0.0143723,-0.0005223,-0.3422693,-0.0143723,-0.0148987,-0.0350284
1.0325000,1.0325000,1.0325000,-0.0141599,-0.0005191,-0.3397344,-0.0141599,-0.0146991,-0.0345159
1.0350000,1.0350000,1.0350000,-0.0139511,-0.0005160,-0.3372247,-0.0139511,-0.0145028,-0.0340121
1.0375000,1.0375000,1.0375000,-0.0137460,-0.0005128,-0.3347397,-0.0137460,-0.0143096,-0.0335169
1.0400000,1.0400000,1.0400000,-0.0135443,-0.0005097,-0.3322793,-0.0135443,-0.0141197,-0.0330301
1.0425000,1.0425000,1.0425000,-0.0133461,-0.0005066,-0.3298430,-0.0133461,-0.0139328,-0.0325516
1.0450000,1.0450000,1.0450000,-0.0131514,-0.0005035,-0.3274306,-0.0131514,-0.0137489,-0.0320812
1.0475000,1.0475000,1.0475000,-0.0129599,-0.0005005,-0.3250418,-0.0129599,-0.0135680,-0.0316188
1.0500000,1.0500000,1.0500000,-0.0127716,-0.0004974,-0.3226763,-0.0127716,-0.0133900,-0.0311641
1.0525000,1.0525000,1.0525000,-0.0125866,-0.0004944,-0.3203339,-0.0125866,-0.0132148,-0.0307171
1.0550000,1.0550000,1.0550000,-0.0124047,-0.0004914,-0.3180142,-0.0124047,-0.0130425,-0.0302776
1.0575000,1.0575000,1.0575000,-0.0122259,-0.0004885,-0.3157169,-0.0122259,-0.0128729,-0.0298454
1.0600000,1.0600000,1.0600000,-0.0120501,-0.0004855,-0.3134419,-0.0120501,-0.0127060,-0.0294205
1.0625000,1.0625000,1.0625000,-0.0118772,-0.0004826,-0.3111887,-0.0118772,-0.0125418,-0.0290026
1.0650000,1.0650000,1.0650000,-0.0117072,-0.0004797,-0.3089573,-0.0117072,-0.0123801,-0.0285917
1.0675000,1.0675000,1.0675000,-0.0115401,-0.0004768,-0.3067472,-0.0115401,-0.0122210,-0.0281875
1.0700000,1.0700000,1.0700000,-0.0113758,-0.0004739,-0.3045583,-0.0113758,-0.0120644,-0.0277901
1.0725000,1.0725000,1.0725000,-0.0112142,-0.0004711,-0.3023902,-0.0112142,-0.0119103,-0.0273992
1.0750000,1.0750000,1.0750000,-0.0110552,-0.0004682,-0.3002428,-0.0110552,-0.0117586,-0.0270147
1.0775000,1.0775000,1.0775000,-0.0108989,-0.0004654,-0.2981158,-0.0108989,-0.0116092,-0.0266366
1.0800000,1.0800000,1.0800000,-0.0107452,-0.0004627,-0.2960089,-0.0107452,-0.0114622,-0.0262646
1.0825000,1.0825000,1.0825000,-0.0105940,-0.0004599,-0.2939219,-0.0105940,-0.0113175,-0.0258987
1.0850000,1.0850000,1.0850000,-0.0104453,-0.0004571,-0.2918547,-0.0104453,-0.0111750,-0.0255388
1.0875000,1.0875000,1.0875000,-0.0102991,-0.0004544,-0.2898068,-0.0102991,-0.0110347,-0.0251847
1.0900000,1.0900000,1.0900000,-0.0101552,-0.0004517,-0.2877782,-0.0101552,-0.0108965,-0.0248363
1.0925000,1.0925000,1.0925000,-0.0100137,-0.0004490,-0.2857685,-0.0100137,-0.0107605,-0.0244936
1.0950000,1.0950000,1.0950000,-0.0098745,-0.0004464,-0.2837776,-0.0098745,-0.0106266,-0.0241564
1.0975000,1.0975000,1.0975000,-0.0097375,-0.0004437,-0.2818053,-0.0097375,-0.0104947,-0.0238246
1.1000000,1.1000000,1.1000000,-0.0096028,-0.0004411,-0.2798512,-0.0096028,-0.0103648,-0.0234982
1.1025000,1.1025000,1.1025000,-0.0094702,-0.0004385,-0.2779153,-0.0094702,-0.0102369,-0.0231770
1.1050000,1.1050000,1.1050000,-0.0093398,-0.0004359,-0.2759973,-0.0093398,-0.0101109,-0.0228609
1.1075000,1.1075000,1.1075000,-0.0092114,-0.0004333,-0.2740970,-0.0092114,-0.0099868,-0.0225498
1.1100000,1.1100000,1.1100000,-0.0090852,-0.0004307,-0.2722142,-0.0090852,-0.0098646,-0.0222437
1.1125000,1.1125000,1.1125000,-0.0089609,-0.0004282,-0.2703487,-0.0089609,-0.0097443,-0.0219425
1.1150000,1.1150000,1.1150000,-0.0088386,-0.0004257,-0.2685002,-0.0088386,-0.0096257,-0.0216460
1.1175000,1.1175000,1.1175000,-0.0087183,-0.0004232,-0.2666687,-0.0087183,-0.0095089,-0.0213542
1.1200000,1.1200000,1.1200000,-0.0085999,-0.0004207,-0.2648538,-0.0085999,-0.0093939,-0.0210670
1.1225000,1.1225000,1.1225000,-0.0084834,-0.0004182,-0.2630555,-0.0084834,-0.0092805,-0.0207843
1.1250000,1.1250000,1.1250000,-0.0083687,-0.0004158,-0.2612735,-0.0083687,-0.0091689,-0.0205061
1.1275000,1.1275000,1.1275000,-0.0082558,-0.0004134,-0.2595076,-0.0082558,-0.0090589,-0.0202322
1.1300000,1.1300000,1.1300000,-0.0081447,-0.0004110,-0.2577577,-0.0081447,-0.0089505,-0.0199626
1.1325000,1.1325000,1.1325000,-0.0080354,-0.0004086,-0.2560235,-0.0080354,-0.0088437,-0.0196972
1.1350000,1.1350000,1.1350000,-0.0079277,-0.0004062,-0.2543050,-0.0079277,-0.0087385,-0.0194359
1.1375000,1.1375000,1.1375000,-0.0078218,-0.0004038,-0.2526018,-0.0078218,-0.0086349,-0.0191786
1.1400000,1.1400000,1.1400000,-0.0077175,-0.0004015,-0.2509139,-0.0077175,-0.0085327,-0.0189253
1.1425000,1.1425000,1.1425000,-0.0076148,-0.0003992,-0.2492411,-0.0076148,-0.0084320,-0.0186760
1.1450000,1.1450000,1.1450000,-0.0075137,-0.0003968,-0.2475832,-0.0075137,-0.0083328,-0.0184304
1.1475000,1.1475000,1.1475000,-0.0074142,-0.0003945,-0.2459400,-0.0074142,-0.0082351,-0.0181887
1.1500000,1.1500000,1.1500000,-0.0073163,-0.0003923,-0.2443114,-0.0073163,-0.0081387,-0.0179506
1.1525000,1.1525000,1.1525000,-0.0072198,-0.0003900,-0.2426972,-0.0072198,-0.0080438,-0.0177162
1.1550000,1.1550000,1.1550000,-0.0071248,-0.0003878,-0.2410973,-0.0071248,-0.0079502,-0.0174854
1.1575000,1.1575000,1.1575000,-0.0070313,-0.0003855,-0.2395114,-0.0070313,-0.0078579,-0.0172581
1.1600000,1.1600000,1.1600000,-0.0069392,-0.0003833,-0.2379395,-0.0069392,-0.0077670,-0.0170342
1.1625000,1.1625000,1.1625000,-0.0068485,-0.0003811,-0.2363814,-0.0068485,-0.0076773,-0.0168137
1.1650000,1.1650000,1.1650000,-0.0067592,-0.0003789,-0.2348369,-0.0067592,-0.0075890,-0.0165966
1.1675000,1.1675000,1.1675000,-0.0066713,-0.0003768,-0.2333059,-0.0066713,-0.0075019,-0.0163827
1.1700000,1.1700000,1.1700000,-0.0065847,-0.0003746,-0.2317882,-0.0065847,-0.0074160,-0.0161721
1.1725000,1.1725000,1.1725000,-0.0064994,-0.0003725,-0.2302838,-0.0064994,-0.0073313,-0.0159646
1.1750000,1.1750000,1.1750000,-0.0064154,-0.0003704,-0.2287924,-0.0064154,-0.0072479,-0.0157602
1.1775000,1.1775000,1.1775000,-0.0063327,-0.0003683,-0.2273138,-0.0063327,-0.0071656,-0.0155589
1.1800000,1.1800000,1.1800000,-0.0062512,-0.0003662,-0.2258481,-0.0062512,-0.0070844,-0.0153606
1.1825000,1.1825000,1.1825000,-0.0061709,-0.0003641,-0.2243950,-0.0061709,-0.0070044,-0.0151652
1.1850000,1.1850000,1.1850000,-0.0060919,-0.0003620,-0.2229543,-0.0060919,-0.0069256,-0.0149727
1.1875000,1.1875000,1.1875000,-0.0060140,-0.0003600,-0.2215261,-0.0060140,-0.0068478,-0.0147831
1.1900000,1.1900000,1.1900000,-0.0059373,-0.0003580,-0.2201100,-0.0059373,-0.0067711,-0.0145963
1.1925000,1.1925000,1.1925000,-0.0058617,-0.0003559,-0.2187061,-0.0058617,-0.0066954,-0.0144123
1.1950000,1.1950000,1.1950000,-0.0057873,-0.0003539,-0.2173141,-0.0057873,-0.0066208,-0.0142309
1.1975000,1.1975000,1.1975000,-0.0057139,-0.0003520,-0.2159339,-0.0057139,-0.0065472,-0.0140522
1.2000000,1.2000000,1.2000000,-0.0056417,-0.0003500,-0.2145655,-0.0056417,-0.0064747,-0.0138762
1.2025000,1.2025000,1.2025000,-0.0055705,-0.0003480,-0.2132087,-0.0055705,-0.0064031,-0.0137027
1.2050000,1.2050000,1.2050000,-0.0055003,-0.0003461,-0.2118633,-0.0055003,-0.0063325,-0.0135317
1.2075000,1.2075000,1.2075000,-0.0054312,-0.0003441,-0.2105292,-0.0054312,-0.0062629,-0.0133633
1.2100000,1.2100000,1.2100000,-0.0053631,-0.0003422,-0.2092064,-0.0053631,-0.0061942,-0.0131973
1.2125000,1.2125000,1.2125000,-0.0052960,-0.0003403,-0.2078947,-0.0052960,-0.0061265,-0.0130337
1.2150000,1.2150000,1.2150000,-0.0052299,-0.0003384,-0.2065939,-0.0052299,-0.0060596,-0.0128724
1.2175000,1.2175000,1.2175000,-0.0051647,-0.0003365,-0.2053041,-0.0051647,-0.0059937,-0.0127135
1.2200000,1.2200000,1.2200000,-0.0051005,-0.0003347,-0.2040250,-0.0051005,-0.0059287,-0.0125569
1.2225000,1.2225000,1.2225000,-0.0050372,-0.0003328,-0.2027565,-0.0050372,-0.0058645,-0.0124025
1.2250000,1.2250000,1.2250000,-0.0049749,-0.0003310,-0.2014986,-0.0049749,-0.0058012,-0.0122504
1.2275000,1.2275000,1.2275000,-0.0049134,-0.0003292,-0.2002511,-0.0049134,-0.0057388,-0.0121004
1.2300000,1.2300000,1.2300000,-0.0048528,-0.0003273,-0.1990139,-0.0048528,-0.0056772,-0.0119526
1.2325000,1.2325000,1.2325000,-0.0047931,-0.0003255,-0.1977870,-0.0047931,-0.0056164,-0.0118068
1.2350000,1.2350000,1.2350000,-0.0047343,-0.0003237,-0.1965701,-0.0047343,-0.0055564,-0.0116632
1.2375000,1.2375000,1.2375000,-0.0046763,-0.0003220,-0.1953632,-0.0046763,-0.0054972,-0.0115216
1.2400000,1.2400000,1.2400000,-0.0046191,-0.0003202,-0.1941663,-0.0046191,-0.0054388,-0.0113820
1.2425000,1.2425000,1.2425000,-0.0045628,-0.0003185,-0.1929791,-0.0045628,-0.0053811,-0.0112443
1.2450000,1.2450000,1.2450000,-0.0045072,-0.0003167,-0.1918016,-0.0045072,-0.0053242,-0.0111086
1.2475000,1.2475000,1.2475000,-0.0044524,-0.0003150,-0.1906338,-0.0044524,-0.0052681,-0.0109749
1.2500000,1.2500000,1.2500000,-0.0043985,-0.0003133,-0.1894754,-0.0043985,-0.0052127,-0.0108430
1.2525000,1.2525000,1.2525000,-0.0043452,-0.0003116,-0.1883264,-0.0043452,-0.0051580,-0.0107129
1.2550000,1.2550000,1.2550000,-0.0042928,-0.0003099,-0.1871867,-0.0042928,-0.0051040,-0.0105847
1.2575000,1.2575000,1.2575000,-0.0042410,-0.0003082,-0.1860563,-0.0042410,-0.0050508,-0.0104582
1.2600000,1.2600000,1.2600000,-0.0041900,-0.0003065,-0.1849349,-0.0041900,-0.0049982,-0.0103336
1.2625000,1.2625000,1.2625000,-0.0041397,-0.0003049,-0.1838226,-0.0041397,-0.0049463,-0.0102106
1.2650000,1.2650000,1.2650000,-0.0040902,-0.0003032,-0.1827192,-0.0040902,-0.0048951,-0.0100894
1.2675000,1.2675000,1.2675000,-0.0040413,-0.0003016,-0.1816247,-0.0040413,-0.0048445,-0.0099698
1.2700000,1.2700000,1.2700000,-0.0039931,-0.0003000,-0.1805389,-0.0039931,-0.0047946,-0.0098519
1.2725000,1.2725000,1.2725000,-0.0039455,-0.0002983,-0.1794618,-0.0039455,-0.0047453,-0.0097356
1.2750000,1.2750000,1.2750000,-0.0038986,-0.0002967,-0.1783933,-0.0038986,-0.0046967,-0.0096209
1.2775000,1.2775000,1.2775000,-0.0038524,-0.0002952,-0.1773333,-0.0038524,-0.0046487,-0.0095078
1.2800000,1.2800000,1.2800000,-0.0038068,-0.0002936,-0.1762816,-0.0038068,-0.0046012,-0.0093963
1.2825000,1.2825000,1.2825000,-0.0037619,-0.0002920,-0.1752384,-0.0037619,-0.0045544,-0.0092862
1.2850000,1.2850000,1.2850000,-0.0037175,-0.0002904,-0.1742033,-0.0037175,-0.0045082,-0.0091777
1.2875000,1.2875000,1.2875000,-0.0036738,-0.0002889,-0.1731764,-0.0036738,-0.0044626,-0.0090707
1.2900000,1.2900000,1.2900000,-0.0036307,-0.0002874,-0.1721576,-0.0036307,-0.0044175,-0.0089651
1.2925000,1.2925000,1.2925000,-0.0035881,-0.0002858,-0.1711469,-0.0035881,-0.0043730,-0.0088609
1.2950000,1.2950000,1.2950000,-0.0035462,-0.0002843,-0.1701440,-0.0035462,-0.0043291,-0.0087582
1.2975000,1.2975000,1.2975000,-0.0035048,-0.0002828,-0.1691490,-0.0035048,-0.0042857,-0.0086568
1.3000000,1.3000000,1.3000000,-0.0034640,-0.0002813,-0.1681617,-0.0034640,-0.0042429,-0.0085568
1.3025000,1.3025000,1.3025000,-0.0034237,-0.0002798,-0.1671822,-0.0034237,-0.0042006,-0.0084581
1.3050000,1.3050000,1.3050000,-0.0033840,-0.0002784,-0.1662102,-0.0033840,-0.0041588,-0.0083608
1.3075000,1.3075000,1.3075000,-0.0033448,-0.0002769,-0.1652459,-0.0033448,-0.0041175,-0.0082648
1.3100000,1.3100000,1.3100000,-0.0033062,-0.0002754,-0.1642889,-0.0033062,-0.0040768,-0.0081701
1.3125000,1.3125000,1.3125000,-0.0032680,-0.0002740,-0.1633394,-0.0032680,-0.0040365,-0.0080766
1.3150000,1.3150000,1.3150000,-0.0032304,-0.0002726,-0.1623972,-0.0032304,-0.0039968,-0.0079844
1.3175000,1.3175000,1.3175000,-0.0031933,-0.0002711,-0.1614623,-0.0031933,-0.0039575,-0.0078934
1.3200000,1.3200000,1.3200000,-0.0031567,-0.0002697,-0.1605346,-0.0031567,-0.0039187,-0.0078036
1.3225000,1.3225000,1.3225000,-0.0031206,-0.0002683,-0.1596139,-0.0031206,-0.0038804,-0.0077150
1.3250000,1.3250000,1.3250000,-0.0030849,-0.0002669,-0.1587004,-0.0030849,-0.0038426,-0.0076276
1.3275000,1.3275000,1.3275000,-0.0030498,-0.0002655,-0.1577938,-0.0030498,-0.0038052,-0.0075413
1.3300000,1.3300000,1.3300000,-0.0030151,-0.0002641,-0.1568941,-0.0030151,-0.0037683,-0.0074562
1.3325000,1.3325000,1.3325000,-0.0029808,-0.0002628,-0.1560013,-0.0029808,-0.0037318,-0.0073722
1.3350000,1.3350000,1.3350000,-0.0029470,-0.0002614,-0.1551152,-0.0029470,-0.0036958,-0.0072893
1.3375000,1.3375000,1.3375000,-0.0029137,-0.0002601,-0.1542359,-0.0029137,-0.0036602,-0.0072074
1.3400000,1.3400000,1.3400000,-0.0028808,-0.0002587,-0.1533632,-0.0028808,-0.0036250,-0.0071267
1.3425000,1.3425000,1.3425000,-0.0028483,-0.0002574,-0.1524972,-0.0028483,-0.0035903,-0.0070470
1.3450000,1.3450000,1.3450000,-0.0028163,-0.0002561,-0.1516376,-0.0028163,-0.0035559,-0.0069683
1.3475000,1.3475000,1.3475000,-0.0027847,-0.0002547,-0.1507845,-0.0027847,-0.0035220,-0.0068907
1.3500000,1.3500000,1.3500000,-0.0027535,-0.0002534,-0.1499379,-0.0027535,-0.0034885,-0.0068141
1.3525000,1.3525000,1.3525000,-0.0027227,-0.0002521,-0.1490975,-0.0027227,-0.0034554,-0.0067384
1.3550000,1.3550000,1.3550000,-0.0026923,-0.0002508,-0.1482635,-0.0026923,-0.0034227,-0.0066637
1.3575000,1.3575000,1.3575000,-0.0026623,-0.0002496,-0.1474357,-0.0026623,-0.0033903,-0.0065900
1.3600000,1.3600000,1.3600000,-0.0026327,-0.0002483,-0.1466141,-0.0026327,-0.0033584,-0.0065173
1.3625000,1.3625000,1.3625000,-0.0026035,-0.0002470,-0.1457985,-0.0026035,-0.0033268,-0.0064455
1.3650000,1.3650000,1.3650000,-0.0025746,-0.0002458,-0.1449891,-0.0025746,-0.0032956,-0.0063746
1.3675000,1.3675000,1.3675000,-0.0025462,-0.0002445,-0.1441856,-0.0025462,-0.0032648,-0.0063046
1.3700000,1.3700000,1.3700000,-0.0025181,-0.0002433,-0.1433881,-0.0025181,-0.0032343,-0.0062355
1.3725000,1.3725000,1.3725000,-0.0024903,-0.0002420,-0.1425965,-0.0024903,-0.0032042,-0.0061673
1.3750000,1.3750000,1.3750000,-0.0024629,-0.0002408,-0.1418107,-0.0024629,-0.0031744,-0.0061000
1.3775000,1.3775000,1.3775000,-0.0024359,-0.0002396,-0.1410306,-0.0024359,-0.0031450,-0.0060335
1.3800000,1.3800000,1.3800000,-0.0024092,-0.0002384,-0.1402564,-0.0024092,-0.0031159,-0.0059678
1.3825000,1.3825000,1.3825000,-0.0023829,-0.0002372,-0.1394877,-0.0023829,-0.0030872,-0.0059030
1.3850000,1.3850000,1.3850000,-0.0023569,-0.0002360,-0.1387248,-0.0023569,-0.0030588,-0.0058390
1.3875000,1.3875000,1.3875000,-0.0023312,-0.0002348,-0.1379673,-0.0023312,-0.0030307,-0.0057758
1.3900000,1.3900000,1.3900000,-0.0023058,-0.0002336,-0.1372154,-0.0023058,-0.0030029,-0.0057134
1.3925000,1.3925000,1.3925000,-0.0022808,-0.0002325,-0.1364690,-0.0022808,-0.0029755,-0.0056518
1.3950000,1.3950000,1.3950000,-0.0022561,-0.0002313,-0.1357280,-0.0022561,-0.0029484,-0.0055910
1.3975000,1.3975000,1.3975000,-0.0022317,-0.0002302,-0.1349924,-0.0022317,-0.0029216,-0.0055309
1.4000000,1.4000000,1.4000000,-0.0022076,-0.0002290,-0.1342621,-0.0022076,-0.0028951,-0.0054716
1.4025000,1.4025000,1.4025000,-0.0021838,-0.0002279,-0.1335370,-0.0021838,-0.0028689,-0.0054130
1.4050000,1.4050000,1.4050000,-0.0021603,-0.0002267,-0.1328172,-0.0021603,-0.0028430,-0.0053552
1.4075000,1.4075000,1.4075000,-0.0021371,-0.0002256,-0.1321026,-0.0021371,-0.0028173,-0.0052980
1.4100000,1.4100000,1.4100000,-0.0021142,-0.0002245,-0.1313931,-0.0021142,-0.0027920,-0.0052416
1.4125000,1.4125000,1.4125000,-0.0020916,-0.0002234,-0.1306887,-0.0020916,-0.0027670,-0.0051859
1.4150000,1.4150000,1.4150000,-0.0020693,-0.0002223,-0.1299893,-0.0020693,-0.0027422,-0.0051309
1.4175000,1.4175000,1.4175000,-0.0020472,-0.0002212,-0.1292949,-0.0020472,-0.0027178,-0.0050765
1.4200000,1.4200000,1.4200000,-0.0020254,-0.0002201,-0.1286055,-0.0020254,-0.0026936,-0.0050228
1.4225000,1.4225000,1.4225000,-0.0020039,-0.0002190,-0.1279210,-0.0020039,-0.0026696,-0.0049698
1.4250000,1.4250000,1.4250000,-0.0019827,-0.0002179,-0.1272413,-0.0019827,-0.0026460,-0.0049174
1.4275000,1.4275000,1.4275000,-0.0019617,-0.0002169,-0.1265665,-0.0019617,-0.0026226,-0.0048657
1.4300000,1.4300000,1.4300000,-0.0019409,-0.0002158,-0.1258964,-0.0019409,-0.0025995,-0.0048146
1.4325000,1.4325000,1.4325000,-0.0019205,-0.0002147,-0.1252311,-0.0019205,-0.0025766,-0.0047641
1.4350000,1.4350000,1.4350000,-0.0019003,-0.0002137,-0.1245705,-0.0019003,-0.0025540,-0.0047142
1.4375000,1.4375000,1.4375000,-0.0018803,-0.0002127,-0.1239145,-0.0018803,-0.0025316,-0.0046650
1.4400000,1.4400000,1.4400000,-0.0018606,-0.0002116,-0.1232631,-0.0018606,-0.0025095,-0.0046163
1.4425000,1.4425000,1.4425000,-0.0018411,-0.0002106,-0.1226163,-0.0018411,-0.0024876,-0.0045682
1.4450000,1.4450000,1.4450000,-0.0018218,-0.0002096,-0.1219741,-0.0018218,-0.0024659,-0.0045208
1.4475000,1.4475000,1.4475000,-0.0018028,-0.0002086,-0.1213363,-0.0018028,-0.0024445,-0.0044738
1.4500000,1.4500000,1.4500000,-0.0017841,-0.0002075,-0.1207029,-0.0017841,-0.0024233,-0.0044275
1.4525000,1.4525000,1.4525000,-0.0017655,-0.0002065,-0.1200740,-0.0017655,-0.0024024,-0.0043817
1.4550000,1.4550000,1.4550000,-0.0017472,-0.0002055,-0.1194495,-0.0017472,-0.0023817,-0.0043365
1.4575000,1.4575000,1.4575000,-0.0017291,-0.0002046,-0.1188293,-0.0017291,-0.0023612,-0.0042918
1.4600000,1.4600000,1.4600000,-0.0017112,-0.0002036,-0.1182134,-0.0017112,-0.0023409,-0.0042476
1.4625000,1.4625000,1.4625000,-0.0016935,-0.0002026,-0.1176017,-0.0016935,-0.0023209,-0.0042040
1.4650000,1.4650000,1.4650000,-0.0016761,-0.0002016,-0.1169943,-0.0016761,-0.0023011,-0.0041609
1.4675000,1.4675000,1.4675000,-0.0016588,-0.0002007,-0.1163911,-0.0016588,-0.0022815,-0.0041183
1.4700000,1.4700000,1.4700000,-0.0016418,-0.0001997,-0.1157920,-0.0016418,-0.0022621,-0.0040762
1.4725000,1.4725000,1.4725000,-0.0016250,-0.0001987,-0.1151970,-0.0016250,-0.0022429,-0.0040346
1.4750000,1.4750000,1.4750000,-0.0016083,-0.0001978,-0.1146061,-0.0016083,-0.0022239,-0.0039935
1.4775000,1.4775000,1.4775000,-0.0015919,-0.0001969,-0.1140193,-0.0015919,-0.0022051,-0.0039529
1.4800000,1.4800000,1.4800000,-0.0015756,-0.0001959,-0.1134365,-0.0015756,-0.0021865,-0.0039127
1.4825000,1.4825000,1.4825000,-0.0015596,-0.0001950,-0.1128576,-0.0015596,-0.0021681,-0.0038731
1.4850000,1.4850000,1.4850000,-0.0015437,-0.0001941,-0.1122827,-0.0015437,-0.0021499,-0.0038339
1.4875000,1.4875000,1.4875000,-0.0015281,-0.0001931,-0.1117117,-0.0015281,-0.0021319,-0.0037951
1.4900000,1.4900000,1.4900000,-0.0015126,-0.0001922,-0.1111446,-0.0015126,-0.0021141,-0.0037568
1.4925000,1.4925000,1.4925000,-0.0014973,-0.0001913,-0.1105813,-0.0014973,-0.0020965,-0.0037190
1.4950000,1.4950000,1.4950000,-0.0014822,-0.0001904,-0.1100218,-0.0014822,-0.0020791,-0.0036816
1.4975000,1.4975000,1.4975000,-0.0014672,-0.0001895,-0.1094661,-0.0014672,-0.0020618,-0.0036447
1.5000000,1.5000000,1.5000000,-0.0014525,-0.0001886,-0.1089141,-0.0014525,-0.0020447,-0.0036081
1.5025000,1.5025000,1.5025000,-0.0014379,-0.0001877,-0.1083659,-0.0014379,-0.0020279,-0.0035720
1.5050000,1.5050000,1.5050000,-0.0014235,-0.0001869,-0.1078214,-0.0014235,-0.0020111,-0.0035364
1.5075000,1.5075000,1.5075000,-0.0014092,-0.0001860,-0.1072804,-0.0014092,-0.0019946,-0.0035011
1.5100000,1.5100000,1.5100000,-0.0013951,-0.0001851,-0.1067432,-0.0013951,-0.0019782,-0.0034662
1.5125000,1.5125000,1.5125000,-0.0013812,-0.0001843,-0.1062095,-0.0013812,-0.0019620,-0.0034318
1.5150000,1.5150000,1.5150000,-0.0013675,-0.0001834,-0.1056793,-0.0013675,-0.0019460,-0.0033977
1.5175000,1.5175000,1.5175000,-0.0013539,-0.0001825,-0.1051527,-0.0013539,-0.0019301,-0.0033640
1.5200000,1.5200000,1.5200000,-0.0013404,-0.0001817,-0.1046296,-0.0013404,-0.0019144,-0.0033308
1.5225000,1.5225000,1.5225000,-0.0013271,-0.0001809,-0.1041100,-0.0013271,-0.0018989,-0.0032979
1.5250000,1.5250000,1.5250000,-0.0013140,-0.0001800,-0.1035938,-0.0013140,-0.0018835,-0.0032653
1.5275000,1.5275000,1.5275000,-0.0013010,-0.0001792,-0.1030811,-0.0013010,-0.0018683,-0.0032332
1.5300000,1.5300000,1.5300000,-0.0012882,-0.0001784,-0.1025717,-0.0012882,-0.0018532,-0.0032014
1.5325000,1.5325000,1.5325000,-0.0012755,-0.0001775,-0.1020657,-0.0012755,-0.0018383,-0.0031700
1.5350000,1.5350000,1.5350000,-0.0012630,-0.0001767,-0.1015630,-0.0012630,-0.0018236,-0.0031389
1.5375000,1.5375000,1.5375000,-0.0012506,-0.0001759,-0.1010636,-0.0012506,-0.0018090,-0.0031082
1.5400000,1.5400000,1.5400000,-0.0012383,-0.0001751,-0.1005675,-0.0012383,-0.0017945,-0.0030779
1.5425000,1.5425000,1.5425000,-0.0012262,-0.0001743,-0.1000746,-0.0012262,-0.0017802,-0.0030478
1.5450000,1.5450000,1.5450000,-0.0012142,-0.0001735,-0.0995850,-0.0012142,-0.0017660,-0.0030182
1.5475000,1.5475000,1.5475000,-0.0012024,-0.0001727,-0.0990985,-0.0012024,-0.0017520,-0.0029888
1.5500000,1.5500000,1.5500000,-0.0011907,-0.0001719,-0.0986153,-0.0011907,-0.0017381,-0.0029598
1.5525000,1.5525000,1.5525000,-0.0011791,-0.0001711,-0.0981351,-0.0011791,-0.0017244,-0.0029311
1.5550000,1.5550000,1.5550000,-0.0011677,-0.0001703,-0.0976581,-0.0011677,-0.0017108,-0.0029027
1.5575000,1.5575000,1.5575000,-0.0011564,-0.0001696,-0.0971842,-0.0011564,-0.0016973,-0.0028747
1.5600000,1.5600000,1.5600000,-0.0011452,-0.0001688,-0.0967134,-0.0011452,-0.0016840,-0.0028470
1.5625000,1.5625000,1.5625000,-0.0011342,-0.0001680,-0.0962456,-0.0011342,-0.0016708,-0.0028195
1.5650000,1.5650000,1.5650000,-0.0011232,-0.0001673,-0.0957808,-0.0011232,-0.0016577,-0.0027924
1.5675000,1.5675000,1.5675000,-0.0011124,-0.0001665,-0.0953190,-0.0011124,-0.0016448,-0.0027656
1.5700000,1.5700000,1.5700000,-0.0011017,-0.0001658,-0.0948602,-0.0011017,-0.0016320,-0.0027391
1.5725000,1.5725000,1.5725000,-0.0010912,-0.0001650,-0.0944043,-0.0010912,-0.0016193,-0.0027129
1.5750000,1.5750000,1.5750000,-0.0010807,-0.0001643,-0.0939514,-0.0010807,-0.0016067,-0.0026869
1.5775000,1.5775000,1.5775000,-0.0010704,-0.0001635,-0.0935014,-0.0010704,-0.0015943,-0.0026613
1.5800000,1.5800000,1.5800000,-0.0010602,-0.0001628,-0.0930542,-0.0010602,-0.0015820,-0.0026359
1.5825000,1.5825000,1.5825000,-0.0010501,-0.0001621,-0.0926099,-0.0010501,-0.0015698,-0.0026108
1.5850000,1.5850000,1.5850000,-0.0010401,-0.0001613,-0.0921684,-0.0010401,-0.0015577,-0.0025860
1.5875000,1.5875000,1.5875000,-0.0010302,-0.0001606,-0.0917297,-0.0010302,-0.0015458,-0.0025615
1.5900000,1.5900000,1.5900000,-0.0010204,-0.0001599,-0.0912938,-0.0010204,-0.0015339,-0.0025372
1.5925000,1.5925000,1.5925000,-0.0010108,-0.0001592,-0.0908607,-0.0010108,-0.0015222,-0.0025132
1.5950000,1.5950000,1.5950000,-0.0010012,-0.0001585,-0.0904303,-0.0010012,-0.0015106,-0.0024895
1.5975000,1.5975000,1.5975000,-0.0009918,-0.0001578,-0.0900027,-0.0009918,-0.0014991,-0.0024660
