# r[nm],d[nm],daligned[nm],U(d)[kj/mol],V(d)[e/nm],Uslab(d)[kJ/mol],UC(d)[kJ/mol],UK(d)[kJ/mol],UCl(d)[kJ/mol]
0.1800000,0.1800000,0.1800000,1829.9440236,0.0150157,213.3313250,1829.9440236,1153.1102492,inf
0.1825000,0.1825000,0.1825000,1600.2943372,0.0093708,185.0619043,1600.2943372,1007.3390423,inf
0.1850000,0.1850000,0.1850000,1401.0102243,0.0040961,160.5621849,1401.0102243,880.9186736,inf
0.1875000,0.1875000,0.1875000,1227.8517461,-0.0008280,139.3004193,1227.8517461,771.1411679,inf
0.1900000,0.1900000,0.1900000,1077.2034701,-0.0054218,120.8249263,1077.2034701,675.6973145,inf
0.1925000,0.1925000,0.1925000,945.9776199,-0.0097044,104.7512446,945.9776199,592.6146802,inf
0.1950000,0.1950000,0.1950000,831.5328778,-0.0136940,90.7514743,831.5328778,520.2058515,inf
0.1975000,0.1975000,0.1975000,731.6062241,-0.0174078,78.5454115,731.6062241,457.0252305,inf
0.2000000,0.2000000,0.2000000,644.2556946,-0.0208624,67.8931586,644.2556946,401.8329229,inf
0.2025000,0.2025000,0.2025000,567.8123213,-0.0240734,58.5889485,567.8123213,353.5644285,inf
0.2050000,0.2050000,0.2050000,500.8398011,-0.0270555,50.4559744,500.8398011,311.3050291,inf
0.2075000,0.2075000,0.2075000,442.1006165,-0.0298227,43.3420506,442.1006165,274.2679877,inf
0.2100000,0.2100000,0.2100000,390.5274833,-0.0323875,37.1159630,390.5274833,241.7758924,1672.2963217
0.2125000,0.2125000,0.2125000,345.1991445,-0.0347617,31.6643945,345.1991445,213.2446704,1483.0556475
0.2150000,0.2150000,0.2150000,305.3197071,-0.0369561,26.8893284,305.3197071,188.1699237,1316.2992857
0.2175000,0.2175000,0.2175000,270.2008994,-0.0389807,22.7058512,270.2008994,166.1153030,1169.2081224
0.2200000,0.2200000,0.2200000,239.2468010,-0.0408447,19.0402897,239.2468010,146.7026576,1039.3360246
0.2225000,0.2225000,0.2225000,211.9407137,-0.0425570,15.8286265,211.9407137,129.6037129,924.5576797
0.2250000,0.2250000,0.2250000,187.8339185,-0.0441259,13.0151482,187.8339185,114.5330402,823.0240888
0.2275000,0.2275000,0.2275000,166.5360870,-0.0455597,10.5512889,166.5360870,101.2421065,733.1245912
0.2300000,0.2300000,0.2300000,147.7071300,-0.0468661,8.3946380,147.7071300,89.5142245,653.4544706
0.2325000,0.2325000,0.2325000,131.0502765,-0.0480526,6.5080871,131.0502765,79.1602496,582.7873177
0.2350000,0.2350000,0.2350000,116.3061902,-0.0491265,4.8590980,116.3061902,70.0149014,520.0514106
0.2375000,0.2375000,0.2375000,103.2479584,-0.0500945,3.4190759,103.2479584,61.9336076,464.3094572
0.2400000,0.2400000,0.2400000,91.6768071,-0.0509632,2.1628354,91.6768071,54.7897904,414.7411313
0.2425000,0.2425000,0.2425000,81.4184275,-0.0517388,1.0681499,81.4184275,48.4725262,370.6279343
0.2450000,0.2450000,0.2450000,72.3198150,-0.0524271,0.1153744,72.3198150,42.8845249,331.3400160
0.2475000,0.2475000,0.2475000,64.2465413,-0.0530335,-0.7128671,64.2465413,37.9403821,296.3246839
0.2500000,0.2500000,0.2500000,57.0803957,-0.0535633,-1.4319413,57.0803957,33.5650643,265.0963928
0.2525000,0.2525000,0.2525000,50.7173411,-0.0540214,-2.0554249,50.7173411,29.6925960,237.2280484
0.2550000,0.2550000,0.2550000,45.0657397,-0.0544122,-2.5952965,45.0657397,26.2649183,212.3434778
0.2575000,0.2575000,0.2575000,40.0448110,-0.0547402,-3.0621117,40.0448110,23.2308949,190.1109267
0.2600000,0.2600000,0.2600000,35.5832896,-0.0550094,-3.4651687,35.5832896,20.5454420,170.2374495
0.2625000,0.2625000,0.2625000,31.6182562,-0.0552237,-3.8126632,31.6182562,18.1687642,152.4640687
0.2650000,0.2650000,0.2650000,28.0941172,-0.0553868,-4.1118303,28.0941172,16.0656777,136.5615908
0.2675000,0.2675000,0.2675000,24.9617115,-0.0555024,-4.3690624,24.9617115,14.2050098,122.3269814
0.2700000,0.2700000,0.2700000,22.1775274,-0.0555749,-4.5899990,22.1775274,12.5590672,109.5802176
0.2725000,0.2725000,0.2725000,19.7030115,-0.0556094,-4.7795860,19.7030115,11.1031687,98.1615452
0.2750000,0.2750000,0.2750000,17.5039560,-0.0556128,-4.9421135,17.5039560,9.8152431,87.9290853
0.2775000,0.2775000,0.2775000,15.5499553,-0.0555945,-5.0812429,15.5499553,8.6754938,78.7567397
0.2800000,0.2800000,0.2800000,13.8139215,-0.0555671,-5.2000389,13.8139215,7.6661327,70.5323556
0.2825000,0.2825000,0.2825000,12.2716581,-0.0555463,-5.3010160,12.2716581,6.7711816,63.1561138
0.2850000,0.2850000,0.2850000,10.9014881,-0.0555504,-5.3862044,10.9014881,5.9763374,56.5391128
0.2875000,0.2875000,0.2875000,9.6839368,-0.0555986,-5.4572315,9.6839368,5.2688846,50.6021224
0.2900000,0.2900000,0.2900000,8.6014719,-0.0557089,-5.5154124,8.6014719,4.6376388,45.2744861
0.2925000,0.2925000,0.2925000,7.6382993,-0.0558946,-5.5618381,7.6382993,4.0728948,40.4931531
0.2950000,0.2950000,0.2950000,6.7802119,-0.0561616,-5.5974549,6.7802119,3.5663598,36.2018247
0.2975000,0.2975000,0.2975000,6.0144848,-0.0565065,-5.6231296,6.0144848,3.1110540,32.3501991
0.3000000,0.3000000,0.3000000,5.3298037,-0.0569148,-5.6396979,5.3298037,2.7011753,28.8933036
0.3025000,0.3025000,0.3025000,4.7162108,-0.0573624,-5.6479938,4.7162108,2.3319326,25.7909011
0.3050000,0.3050000,0.3050000,4.1650503,-0.0578176,-5.6488587,4.1650503,1.9993608,23.0069632
0.3075000,0.3075000,0.3075000,3.6688979,-0.0582449,-5.6431321,3.6688979,1.7001343,20.5091981
0.3100000,0.3100000,0.3100000,3.2214655,-0.0586099,-5.6316316,3.2214655,1.4313966,18.2686295
0.3125000,0.3125000,0.3125000,2.8174784,-0.0588830,-5.6151283,2.8174784,1.1906175,16.2592187
0.3150000,0.3150000,0.3150000,2.4525305,-0.0590434,-5.5943293,2.4525305,0.9754845,14.4575271
0.3175000,0.3175000,0.3175000,2.1229272,-0.0590810,-5.5698719,2.1229272,0.7838309,12.8424165
0.3200000,0.3200000,0.3200000,1.8255309,-0.0589968,-5.5423325,1.8255309,0.6135950,11.3947849
0.3225000,0.3225000,0.3225000,1.5576194,-0.0588024,-5.5122465,1.5576194,0.4628039,10.0973373
0.3250000,0.3250000,0.3250000,1.3167679,-0.0585172,-5.4801328,1.3167679,0.3295742,8.9343912
0.3275000,0.3275000,0.3275000,1.1007591,-0.0581659,-5.4465089,1.1007591,0.2121206,7.8917148
0.3300000,0.3300000,0.3300000,0.9075214,-0.0577752,-5.4118879,0.9075214,0.1087667,6.9563985
0.3325000,0.3325000,0.3325000,0.7350927,-0.0573706,-5.3767549,0.7350927,0.0179521,6.1167543
0.3350000,0.3350000,0.3350000,0.5816041,-0.0569735,-5.3415304,0.5816041,-0.0617666,5.3622397
0.3375000,0.3375000,0.3375000,0.4452762,-0.0565994,-5.3065336,0.4452762,-0.1317238,4.6834002
0.3400000,0.3400000,0.3400000,0.3244249,-0.0562570,-5.2719572,0.3244249,-0.1931598,4.0718195
0.3425000,0.3425000,0.3425000,0.2174671,-0.0559483,-5.2378585,0.2174671,-0.2472398,3.5200714
0.3450000,0.3450000,0.3450000,0.1229263,-0.0556701,-5.2041657,0.1229263,-0.2950707,3.0216644
0.3475000,0.3475000,0.3475000,0.0394306,-0.0554162,-5.1706951,0.0394306,-0.3377119,2.5709733
0.3500000,0.3500000,0.3500000,-0.0342941,-0.0551794,-5.1371803,-0.0342941,-0.3761749,2.1631564
0.3525000,0.3525000,0.3525000,-0.0994387,-0.0549535,-5.1033099,-0.0994387,-0.4114126,1.7940603
0.3550000,0.3550000,0.3550000,-0.1571268,-0.0547338,-5.0687694,-0.1571268,-0.4443002,1.4601156
0.3575000,0.3575000,0.3575000,-0.2084283,-0.0545176,-5.0332817,-0.2084283,-0.4756118,1.1582328
0.3600000,0.3600000,0.3600000,-0.2543681,-0.0543034,-4.9966374,-0.2543681,-0.5059971,0.8857033
0.3625000,0.3625000,0.3625000,-0.2959243,-0.0540897,-4.9587101,-0.2959243,-0.5359610,0.6401131
0.3650000,0.3650000,0.3650000,-0.3340201,-0.0538743,-4.9194594,-0.3340201,-0.5658507,0.4192723
0.3675000,0.3675000,0.3675000,-0.3695072,-0.0536524,-4.8789227,-0.3695072,-0.5958506,0.2211622
0.3700000,0.3700000,0.3700000,-0.4031460,-0.0534158,-4.8372054,-0.4031460,-0.6259883,0.0438988
0.3725000,0.3725000,0.3725000,-0.4355850,-0.0531521,-4.7944734,-0.4355850,-0.6561497,-0.1142891
0.3750000,0.3750000,0.3750000,-0.4673417,-0.0528449,-4.7509505,-0.4673417,-0.6861045,-0.2550715
0.3775000,0.3775000,0.3775000,-0.4987880,-0.0524757,-4.7069149,-0.4987880,-0.7155366,-0.3800218
0.3800000,0.3800000,0.3800000,-0.5301445,-0.0520251,-4.6626869,-0.5301445,-0.7440788,-0.4906188
0.3825000,0.3825000,0.3825000,-0.5614833,-0.0514758,-4.6186032,-0.5614833,-0.7713453,-0.5882489
0.3850000,0.3850000,0.3850000,-0.5927417,-0.0508136,-4.5749799,-0.5927417,-0.7969627,-0.6742114
0.3875000,0.3875000,0.3875000,-0.6237446,-0.0500286,-4.5320744,-0.6237446,-0.8205943,-0.7497271
0.3900000,0.3900000,0.3900000,-0.6542326,-0.0491155,-4.4900561,-0.6542326,-0.8419606,-0.8159493
0.3925000,0.3925000,0.3925000,-0.6838923,-0.0480737,-4.4489936,-0.6838923,-0.8608537,-0.8739765
0.3950000,0.3950000,0.3950000,-0.7123864,-0.0469071,-4.4088599,-0.7123864,-0.8771456,-0.9248632
0.3975000,0.3975000,0.3975000,-0.7393799,-0.0456246,-4.3695502,-0.7393799,-0.8907908,-0.9696259
0.4000000,0.4000000,0.4000000,-0.7645641,-0.0442393,-4.3309045,-0.7645641,-0.9018229,-1.0092446
0.4025000,0.4025000,0.4025000,-0.7876745,-0.0427686,-4.2927297,-0.7876745,-0.9103435,-1.0446560
0.4050000,0.4050000,0.4050000,-0.8085050,-0.0412330,-4.2548173,-0.8085050,-0.9165084,-1.0767400
0.4075000,0.4075000,0.4075000,-0.8269165,-0.0396558,-4.2169561,-0.8269165,-0.9205088,-1.1063004
0.4100000,0.4100000,0.4100000,-0.8428392,-0.0380618,-4.1789415,-0.8428392,-0.9225549,-1.1340425
0.4125000,0.4125000,0.4125000,-0.8562699,-0.0364764,-4.1405809,-0.8562699,-0.9228627,-1.1605526
0.4150000,0.4150000,0.4150000,-0.8672635,-0.0349246,-4.1016992,-0.8672635,-0.9216474,-1.1862816
0.4175000,0.4175000,0.4175000,-0.8759215,-0.0334297,-4.0621444,-0.8759215,-0.9191247,-1.2115369
0.4200000,0.4200000,0.4200000,-0.8823795,-0.0320125,-4.0217923,-0.8823795,-0.9155162,-1.2364842
0.4225000,0.4225000,0.4225000,-0.8867962,-0.0306900,-3.9805519,-0.8867962,-0.9110558,-1.2611574
0.4250000,0.4250000,0.4250000,-0.8893473,-0.0294741,-3.9383674,-0.8893473,-0.9059907,-1.2854759
0.4275000,0.4275000,0.4275000,-0.8902239,-0.0283708,-3.8952190,-0.8902239,-0.9005756,-1.3092676
0.4300000,0.4300000,0.4300000,-0.8896350,-0.0273802,-3.8511212,-0.8896350,-0.8950585,-1.3322940
0.4325000,0.4325000,0.4325000,-0.8878106,-0.0264960,-3.8061187,-0.8878106,-0.8896618,-1.3542769
0.4350000,0.4350000,0.4350000,-0.8850016,-0.0257069,-3.7602812,-0.8850016,-0.8845617,-1.3749239
0.4375000,0.4375000,0.4375000,-0.8814735,-0.0249977,-3.7136980,-0.8814735,-0.8798732,-1.3939518
0.4400000,0.4400000,0.4400000,-0.8774942,-0.0243511,-3.6664720,-0.8774942,-0.8756405,-1.4111071
0.4425000,0.4425000,0.4425000,-0.8733168,-0.0237489,-3.6187143,-0.8733168,-0.8718388,-1.4261806
0.4450000,0.4450000,0.4450000,-0.8691605,-0.0231737,-3.5705400,-0.8691605,-0.8683839,-1.4390176
0.4475000,0.4475000,0.4475000,-0.8651936,-0.0226101,-3.5220639,-0.8651936,-0.8651480,-1.4495217
0.4500000,0.4500000,0.4500000,-0.8615224,-0.0220458,-3.4733979,-0.8615224,-0.8619791,-1.4576544
0.4525000,0.4525000,0.4525000,-0.8581861,-0.0214720,-3.4246484,-0.8581861,-0.8587202,-1.4634297
0.4550000,0.4550000,0.4550000,-0.8551610,-0.0208849,-3.3759155,-0.8551610,-0.8552255,-1.4669072
0.4575000,0.4575000,0.4575000,-0.8523697,-0.0202848,-3.3272912,-0.8523697,-0.8513740,-1.4681855
0.4600000,0.4600000,0.4600000,-0.8496969,-0.0196766,-3.2788597,-0.8496969,-0.8470770,-1.4673973
0.4625000,0.4625000,0.4625000,-0.8470072,-0.0190676,-3.2306965,-0.8470072,-0.8422812,-1.4647064
0.4650000,0.4650000,0.4650000,-0.8441633,-0.0184665,-3.1828692,-0.8441633,-0.8369653,-1.4603071
0.4675000,0.4675000,0.4675000,-0.8410435,-0.0178803,-3.1354374,-0.8410435,-0.8311325,-1.4544227
0.4700000,0.4700000,0.4700000,-0.8375535,-0.0173129,-3.0884530,-0.8375535,-0.8248010,-1.4473014
0.4725000,0.4725000,0.4725000,-0.8336332,-0.0167641,-3.0419613,-0.8336332,-0.8179960,-1.4392088
0.4750000,0.4750000,0.4750000,-0.8292556,-0.0162290,-2.9960007,-0.8292556,-0.8107430,-1.4304158
0.4775000,0.4775000,0.4775000,-0.8244205,-0.0157002,-2.9506041,-0.8244205,-0.8030640,-1.4211829
0.4800000,0.4800000,0.4800000,-0.8191452,-0.0151685,-2.9057987,-0.8191452,-0.7949761,-1.4117441
0.4825000,0.4825000,0.4825000,-0.8134551,-0.0146251,-2.8616071,-0.8134551,-0.7864910,-1.4022914
0.4850000,0.4850000,0.4850000,-0.8073763,-0.0140626,-2.8180475,-0.8073763,-0.7776157,-1.3929636
0.4875000,0.4875000,0.4875000,-0.8009297,-0.0134764,-2.7751340,-0.8009297,-0.7683537,-1.3838402
0.4900000,0.4900000,0.4900000,-0.7941289,-0.0128646,-2.7328776,-0.7941289,-0.7587071,-1.3749425
0.4925000,0.4925000,0.4925000,-0.7869784,-0.0122287,-2.6912862,-0.7869784,-0.7486783,-1.3662403
0.4950000,0.4950000,0.4950000,-0.7794747,-0.0115731,-2.6503647,-0.7794747,-0.7382726,-1.3576647
0.4975000,0.4975000,0.4975000,-0.7716075,-0.0109046,-2.6101160,-0.7716075,-0.7274996,-1.3491236
0.5000000,0.5000000,0.5000000,-0.7633627,-0.0102319,-2.5705407,-0.7633627,-0.7163742,-1.3405179
0.5025000,0.5025000,0.5025000,-0.7547258,-0.0095644,-2.5316379,-0.7547258,-0.7049174,-1.3317557
0.5050000,0.5050000,0.5050000,-0.7456847,-0.0089115,-2.4934048,-0.7456847,-0.6931557,-1.3227613
0.5075000,0.5075000,0.5075000,-0.7362322,-0.0082823,-2.4558375,-0.7362322,-0.6811208,-1.3134795
0.5100000,0.5100000,0.5100000,-0.7263685,-0.0076842,-2.4189307,-0.7263685,-0.6688484,-1.3038748
0.5125000,0.5125000,0.5125000,-0.7161016,-0.0071233,-2.3826784,-0.7161016,-0.6563768,-1.2939280
0.5150000,0.5150000,0.5150000,-0.7054478,-0.0066041,-2.3470736,-0.7054478,-0.6437462,-1.2836306
0.5175000,0.5175000,0.5175000,-0.6944310,-0.0061292,-2.3121085,-0.6944310,-0.6309970,-1.2729795
0.5200000,0.5200000,0.5200000,-0.6830815,-0.0056998,-2.2777749,-0.6830815,-0.6181691,-1.2619721
0.5225000,0.5225000,0.5225000,-0.6714350,-0.0053159,-2.2440640,-0.6714350,-0.6053012,-1.2506027
0.5250000,0.5250000,0.5250000,-0.6595308,-0.0049762,-2.2109666,-0.6595308,-0.5924297,-1.2388611
0.5275000,0.5275000,0.5275000,-0.6474105,-0.0046788,-2.1784731,-0.6474105,-0.5795888,-1.2267315
0.5300000,0.5300000,0.5300000,-0.6351164,-0.0044211,-2.1465738,-0.6351164,-0.5668097,-1.2141942
0.5325000,0.5325000,0.5325000,-0.6226909,-0.0042001,-2.1152586,-0.6226909,-0.5541208,-1.2012274
0.5350000,0.5350000,0.5350000,-0.6101751,-0.0040127,-2.0845176,-0.6101751,-0.5415476,-1.1878101
0.5375000,0.5375000,0.5375000,-0.5976083,-0.0038556,-2.0543405,-0.5976083,-0.5291124,-1.1739243
0.5400000,0.5400000,0.5400000,-0.5850273,-0.0037256,-2.0247170,-0.5850273,-0.5168348,-1.1595582
0.5425000,0.5425000,0.5425000,-0.5724662,-0.0036197,-1.9956369,-0.5724662,-0.5047318,-1.1447075
0.5450000,0.5450000,0.5450000,-0.5599564,-0.0035349,-1.9670898,-0.5599564,-0.4928176,-1.1293765
0.5475000,0.5475000,0.5475000,-0.5475260,-0.0034686,-1.9390656,-0.5475260,-0.4811044,-1.1135786
0.5500000,0.5500000,0.5500000,-0.5352001,-0.0034182,-1.9115541,-0.5352001,-0.4696019,-1.0973361
0.5525000,0.5525000,0.5525000,-0.5230011,-0.0033814,-1.8845451,-0.5230011,-0.4583181,-1.0806788
0.5550000,0.5550000,0.5550000,-0.5109483,-0.0033563,-1.8580288,-0.5109483,-0.4472592,-1.0636433
0.5575000,0.5575000,0.5575000,-0.4990585,-0.0033409,-1.8319951,-0.4990585,-0.4364299,-1.0462714
0.5600000,0.5600000,0.5600000,-0.4873461,-0.0033337,-1.8064345,-0.4873461,-0.4258333,-1.0286086
0.5625000,0.5625000,0.5625000,-0.4758231,-0.0033332,-1.7813371,-0.4758231,-0.4154714,-1.0107028
0.5650000,0.5650000,0.5650000,-0.4644994,-0.0033382,-1.7566937,-0.4644994,-0.4053453,-0.9926029
0.5675000,0.5675000,0.5675000,-0.4533834,-0.0033475,-1.7324948,-0.4533834,-0.3954548,-0.9743576
0.5700000,0.5700000,0.5700000,-0.4424812,-0.0033603,-1.7087312,-0.4424812,-0.3857993,-0.9560148
0.5725000,0.5725000,0.5725000,-0.4317979,-0.0033757,-1.6853940,-0.4317979,-0.3763771,-0.9376203
0.5750000,0.5750000,0.5750000,-0.4213370,-0.0033930,-1.6624742,-0.4213370,-0.3671862,-0.9192177
0.5775000,0.5775000,0.5775000,-0.4111009,-0.0034116,-1.6399633,-0.4111009,-0.3582239,-0.9008478
0.5800000,0.5800000,0.5800000,-0.4010910,-0.0034310,-1.6178526,-0.4010910,-0.3494873,-0.8825485
0.5825000,0.5825000,0.5825000,-0.3913075,-0.0034507,-1.5961339,-0.3913075,-0.3409728,-0.8643543
0.5850000,0.5850000,0.5850000,-0.3817502,-0.0034704,-1.5747988,-0.3817502,-0.3326768,-0.8462964
0.5875000,0.5875000,0.5875000,-0.3724180,-0.0034898,-1.5538395,-0.3724180,-0.3245953,-0.8284031
0.5900000,0.5900000,0.5900000,-0.3633091,-0.0035086,-1.5332480,-0.3633091,-0.3167242,-0.8106994
0.5925000,0.5925000,0.5925000,-0.3544214,-0.0035267,-1.5130166,-0.3544214,-0.3090592,-0.7932072
0.5950000,0.5950000,0.5950000,-0.3457523,-0.0035439,-1.4931379,-0.3457523,-0.3015958,-0.7759456
0.5975000,0.5975000,0.5975000,-0.3372988,-0.0035600,-1.4736044,-0.3372988,-0.2943297,-0.7589312
0.6000000,0.6000000,0.6000000,-0.3290575,-0.0035749,-1.4544090,-0.3290575,-0.2872562,-0.7421781
0.6025000,0.6025000,0.6025000,-0.3210249,-0.0035886,-1.4355445,-0.3210249,-0.2803708,-0.7256979
0.6050000,0.6050000,0.6050000,-0.3131973,-0.0036010,-1.4170042,-0.3131973,-0.2736688,-0.7095003
0.6075000,0.6075000,0.6075000,-0.3055707,-0.0036120,-1.3987813,-0.3055707,-0.2671458,-0.6935931
0.6100000,0.6100000,0.6100000,-0.2981411,-0.0036217,-1.3808691,-0.2981411,-0.2607972,-0.6779824
0.6125000,0.6125000,0.6125000,-0.2909043,-0.0036301,-1.3632613,-0.2909043,-0.2546185,-0.6626727
0.6150000,0.6150000,0.6150000,-0.2838561,-0.0036371,-1.3459516,-0.2838561,-0.2486052,-0.6476671
0.6175000,0.6175000,0.6175000,-0.2769922,-0.0036428,-1.3289338,-0.2769922,-0.2427530,-0.6329675
0.6200000,0.6200000,0.6200000,-0.2703084,-0.0036471,-1.3122019,-0.2703084,-0.2370574,-0.6185748
0.6225000,0.6225000,0.6225000,-0.2638003,-0.0036501,-1.2957500,-0.2638003,-0.2315143,-0.6044887
0.6250000,0.6250000,0.6250000,-0.2574637,-0.0036519,-1.2795725,-0.2574637,-0.2261195,-0.5907083
0.6275000,0.6275000,0.6275000,-0.2512943,-0.0036524,-1.2636636,-0.2512943,-0.2208689,-0.5772319
0.6300000,0.6300000,0.6300000,-0.2452879,-0.0036517,-1.2480180,-0.2452879,-0.2157584,-0.5640570
0.6325000,0.6325000,0.6325000,-0.2394404,-0.0036499,-1.2326302,-0.2394404,-0.2107842,-0.5511808
0.6350000,0.6350000,0.6350000,-0.2337475,-0.0036469,-1.2174951,-0.2337475,-0.2059425,-0.5385997
0.6375000,0.6375000,0.6375000,-0.2282052,-0.0036429,-1.2026075,-0.2282052,-0.2012294,-0.5263099
0.6400000,0.6400000,0.6400000,-0.2228096,-0.0036378,-1.1879625,-0.2228096,-0.1966413,-0.5143073
0.6425000,0.6425000,0.6425000,-0.2175567,-0.0036318,-1.1735551,-0.2175567,-0.1921748,-0.5025874
0.6450000,0.6450000,0.6450000,-0.2124426,-0.0036248,-1.1593807,-0.2124426,-0.1878263,-0.4911454
0.6475000,0.6475000,0.6475000,-0.2074636,-0.0036168,-1.1454345,-0.2074636,-0.1835924,-0.4799765
0.6500000,0.6500000,0.6500000,-0.2026160,-0.0036081,-1.1317121,-0.2026160,-0.1794699,-0.4690756
0.6525000,0.6525000,0.6525000,-0.1978962,-0.0035984,-1.1182090,-0.1978962,-0.1754555,-0.4584375
0.6550000,0.6550000,0.6550000,-0.1933006,-0.0035881,-1.1049208,-0.1933006,-0.1715463,-0.4480569
0.6575000,0.6575000,0.6575000,-0.1888259,-0.0035769,-1.0918434,-0.1888259,-0.1677390,-0.4379284
0.6600000,0.6600000,0.6600000,-0.1844685,-0.0035651,-1.0789725,-0.1844685,-0.1640310,-0.4280468
0.6625000,0.6625000,0.6625000,-0.1802254,-0.0035526,-1.0663041,-0.1802254,-0.1604192,-0.4184066
0.6650000,0.6650000,0.6650000,-0.1760932,-0.0035395,-1.0538344,-0.1760932,-0.1569009,-0.4090024
0.6675000,0.6675000,0.6675000,-0.1720688,-0.0035257,-1.0415593,-0.1720688,-0.1534734,-0.3998289
0.6700000,0.6700000,0.6700000,-0.1681493,-0.0035115,-1.0294752,-0.1681493,-0.1501342,-0.3908807
0.6725000,0.6725000,0.6725000,-0.1643317,-0.0034966,-1.0175783,-0.1643317,-0.1468807,-0.3821524
0.6750000,0.6750000,0.6750000,-0.1606130,-0.0034814,-1.0058651,-0.1606130,-0.1437104,-0.3736390
0.6775000,0.6775000,0.6775000,-0.1569906,-0.0034656,-0.9943320,-0.1569906,-0.1406209,-0.3653351
0.6800000,0.6800000,0.6800000,-0.1534618,-0.0034494,-0.9829755,-0.1534618,-0.1376101,-0.3572357
0.6825000,0.6825000,0.6825000,-0.1500238,-0.0034328,-0.9717924,-0.1500238,-0.1346755,-0.3493357
0.6850000,0.6850000,0.6850000,-0.1466741,-0.0034159,-0.9607793,-0.1466741,-0.1318151,-0.3416302
0.6875000,0.6875000,0.6875000,-0.1434102,-0.0033985,-0.9499330,-0.1434102,-0.1290267,-0.3341144
0.6900000,0.6900000,0.6900000,-0.1402298,-0.0033809,-0.9392503,-0.1402298,-0.1263083,-0.3267833
0.6925000,0.6925000,0.6925000,-0.1371304,-0.0033630,-0.9287282,-0.1371304,-0.1236579,-0.3196324
0.6950000,0.6950000,0.6950000,-0.1341098,-0.0033447,-0.9183637,-0.1341098,-0.1210735,-0.3126571
0.6975000,0.6975000,0.6975000,-0.1311658,-0.0033263,-0.9081538,-0.1311658,-0.1185534,-0.3058529
0.7000000,0.7000000,0.7000000,-0.1282962,-0.0033076,-0.8980956,-0.1282962,-0.1160958,-0.2992153
0.7025000,0.7025000,0.7025000,-0.1254989,-0.0032886,-0.8881864,-0.1254989,-0.1136987,-0.2927401
0.7050000,0.7050000,0.7050000,-0.1227720,-0.0032695,-0.8784233,-0.1227720,-0.1113607,-0.2864230
0.7075000,0.7075000,0.7075000,-0.1201134,-0.0032502,-0.8688038,-0.1201134,-0.1090799,-0.2802600
0.7100000,0.7100000,0.7100000,-0.1175212,-0.0032308,-0.8593251,-0.1175212,-0.1068549,-0.2742471
0.7125000,0.7125000,0.7125000,-0.1149937,-0.0032112,-0.8499847,-0.1149937,-0.1046840,-0.2683804
0.7150000,0.7150000,0.7150000,-0.1125289,-0.0031915,-0.8407801,-0.1125289,-0.1025658,-0.2626559
0.7175000,0.7175000,0.7175000,-0.1101252,-0.0031717,-0.8317087,-0.1101252,-0.1004988,-0.2570701
0.7200000,0.7200000,0.7200000,-0.1077809,-0.0031517,-0.8227683,-0.1077809,-0.0984816,-0.2516193
0.7225000,0.7225000,0.7225000,-0.1054942,-0.0031317,-0.8139564,-0.1054942,-0.0965128,-0.2462999
0.7250000,0.7250000,0.7250000,-0.1032638,-0.0031116,-0.8052707,-0.1032638,-0.0945911,-0.2411085
0.7275000,0.7275000,0.7275000,-0.1010878,-0.0030915,-0.7967090,-0.1010878,-0.0927153,-0.2360418
0.7300000,0.7300000,0.7300000,-0.0989650,-0.0030713,-0.7882690,-0.0989650,-0.0908840,-0.2310965
0.7325000,0.7325000,0.7325000,-0.0968938,-0.0030511,-0.7799487,-0.0968938,-0.0890960,-0.2262694
0.7350000,0.7350000,0.7350000,-0.0948729,-0.0030308,-0.7717458,-0.0948729,-0.0873502,-0.2215574
0.7375000,0.7375000,0.7375000,-0.0929008,-0.0030106,-0.7636583,-0.0929008,-0.0856455,-0.2169575
0.7400000,0.7400000,0.7400000,-0.0909762,-0.0029903,-0.7556841,-0.0909762,-0.0839807,-0.2124668
0.7425000,0.7425000,0.7425000,-0.0890978,-0.0029700,-0.7478214,-0.0890978,-0.0823547,-0.2080824
0.7450000,0.7450000,0.7450000,-0.0872645,-0.0029498,-0.7400681,-0.0872645,-0.0807666,-0.2038016
0.7475000,0.7475000,0.7475000,-0.0854749,-0.0029295,-0.7324223,-0.0854749,-0.0792152,-0.1996216
0.7500000,0.7500000,0.7500000,-0.0837279,-0.0029093,-0.7248821,-0.0837279,-0.0776997,-0.1955398
0.7525000,0.7525000,0.7525000,-0.0820223,-0.0028891,-0.7174459,-0.0820223,-0.0762190,-0.1915537
0.7550000,0.7550000,0.7550000,-0.0803571,-0.0028690,-0.7101116,-0.0803571,-0.0747723,-0.1876607
0.7575000,0.7575000,0.7575000,-0.0787311,-0.0028489,-0.7028777,-0.0787311,-0.0733587,-0.1838585
0.7600000,0.7600000,0.7600000,-0.0771433,-0.0028289,-0.6957423,-0.0771433,-0.0719772,-0.1801447
0.7625000,0.7625000,0.7625000,-0.0755928,-0.0028089,-0.6887039,-0.0755928,-0.0706271,-0.1765170
0.7650000,0.7650000,0.7650000,-0.0740784,-0.0027890,-0.6817607,-0.0740784,-0.0693074,-0.1729732
0.7675000,0.7675000,0.7675000,-0.0725993,-0.0027691,-0.6749111,-0.0725993,-0.0680176,-0.1695111
0.7700000,0.7700000,0.7700000,-0.0711546,-0.0027493,-0.6681536,-0.0711546,-0.0667566,-0.1661286
0.7725000,0.7725000,0.7725000,-0.0697432,-0.0027296,-0.6614866,-0.0697432,-0.0655239,-0.1628238
0.7750000,0.7750000,0.7750000,-0.0683644,-0.0027100,-0.6549086,-0.0683644,-0.0643186,-0.1595945
0.7775000,0.7775000,0.7775000,-0.0670173,-0.0026905,-0.6484181,-0.0670173,-0.0631402,-0.1564388
0.7800000,0.7800000,0.7800000,-0.0657011,-0.0026711,-0.6420136,-0.0657011,-0.0619878,-0.1533550
0.7825000,0.7825000,0.7825000,-0.0644149,-0.0026517,-0.6356938,-0.0644149,-0.0608608,-0.1503411
0.7850000,0.7850000,0.7850000,-0.0631580,-0.0026324,-0.6294572,-0.0631580,-0.0597585,-0.1473953
0.7875000,0.7875000,0.7875000,-0.0619297,-0.0026133,-0.6233024,-0.0619297,-0.0586805,-0.1445160
0.7900000,0.7900000,0.7900000,-0.0607291,-0.0025942,-0.6172282,-0.0607291,-0.0576259,-0.1417015
0.7925000,0.7925000,0.7925000,-0.0595557,-0.0025753,-0.6112331,-0.0595557,-0.0565943,-0.1389500
0.7950000,0.7950000,0.7950000,-0.0584086,-0.0025564,-0.6053159,-0.0584086,-0.0555850,-0.1362601
0.7975000,0.7975000,0.7975000,-0.0572872,-0.0025377,-0.5994754,-0.0572872,-0.0545975,-0.1336302
0.8000000,0.8000000,0.8000000,-0.0561909,-0.0025191,-0.5937102,-0.0561909,-0.0536313,-0.1310588
0.8025000,0.8025000,0.8025000,-0.0551191,-0.0025005,-0.5880192,-0.0551191,-0.0526858,-0.1285444
0.8050000,0.8050000,0.8050000,-0.0540710,-0.0024821,-0.5824011,-0.0540710,-0.0517605,-0.1260855
0.8075000,0.8075000,0.8075000,-0.0530461,-0.0024638,-0.5768549,-0.0530461,-0.0508549,-0.1236809
0.8100000,0.8100000,0.8100000,-0.0520439,-0.0024457,-0.5713793,-0.0520439,-0.0499685,-0.1213291
0.8125000,0.8125000,0.8125000,-0.0510637,-0.0024276,-0.5659732,-0.0510637,-0.0491009,-0.1190289
0.8150000,0.8150000,0.8150000,-0.0501050,-0.0024097,-0.5606356,-0.0501050,-0.0482516,-0.1167790
0.8175000,0.8175000,0.8175000,-0.0491673,-0.0023919,-0.5553652,-0.0491673,-0.0474201,-0.1145781
0.8200000,0.8200000,0.8200000,-0.0482500,-0.0023742,-0.5501612,-0.0482500,-0.0466060,-0.1124250
0.8225000,0.8225000,0.8225000,-0.0473527,-0.0023566,-0.5450223,-0.0473527,-0.0458089,-0.1103186
0.8250000,0.8250000,0.8250000,-0.0464748,-0.0023391,-0.5399477,-0.0464748,-0.0450283,-0.1082577
0.8275000,0.8275000,0.8275000,-0.0456158,-0.0023218,-0.5349363,-0.0456158,-0.0442639,-0.1062412
0.8300000,0.8300000,0.8300000,-0.0447754,-0.0023046,-0.5299870,-0.0447754,-0.0435154,-0.1042680
0.8325000,0.8325000,0.8325000,-0.0439530,-0.0022875,-0.5250990,-0.0439530,-0.0427822,-0.1023371
0.8350000,0.8350000,0.8350000,-0.0431482,-0.0022706,-0.5202713,-0.0431482,-0.0420640,-0.1004474
0.8375000,0.8375000,0.8375000,-0.0423606,-0.0022537,-0.5155030,-0.0423606,-0.0413605,-0.0985980
0.8400000,0.8400000,0.8400000,-0.0415897,-0.0022370,-0.5107931,-0.0415897,-0.0406714,-0.0967879
0.8425000,0.8425000,0.8425000,-0.0408352,-0.0022204,-0.5061408,-0.0408352,-0.0399962,-0.0950161
0.8450000,0.8450000,0.8450000,-0.0400966,-0.0022040,-0.5015451,-0.0400966,-0.0393347,-0.0932817
0.8475000,0.8475000,0.8475000,-0.0393736,-0.0021876,-0.4970052,-0.0393736,-0.0386866,-0.0915839
0.8500000,0.8500000,0.8500000,-0.0386658,-0.0021714,-0.4925203,-0.0386658,-0.0380514,-0.0899217
0.8525000,0.8525000,0.8525000,-0.0379728,-0.0021554,-0.4880895,-0.0379728,-0.0374290,-0.0882943
0.8550000,0.8550000,0.8550000,-0.0372944,-0.0021394,-0.4837120,-0.0372944,-0.0368190,-0.0867008
0.8575000,0.8575000,0.8575000,-0.0366300,-0.0021236,-0.4793870,-0.0366300,-0.0362212,-0.0851406
0.8600000,0.8600000,0.8600000,-0.0359794,-0.0021079,-0.4751138,-0.0359794,-0.0356351,-0.0836127
0.8625000,0.8625000,0.8625000,-0.0353424,-0.0020923,-0.4708914,-0.0353424,-0.0350607,-0.0821165
0.8650000,0.8650000,0.8650000,-0.0347184,-0.0020768,-0.4667193,-0.0347184,-0.0344976,-0.0806512
0.8675000,0.8675000,0.8675000,-0.0341073,-0.0020615,-0.4625965,-0.0341073,-0.0339455,-0.0792160
0.8700000,0.8700000,0.8700000,-0.0335088,-0.0020463,-0.4585225,-0.0335088,-0.0334043,-0.0778103
0.8725000,0.8725000,0.8725000,-0.0329225,-0.0020312,-0.4544964,-0.0329225,-0.0328736,-0.0764334
0.8750000,0.8750000,0.8750000,-0.0323482,-0.0020162,-0.4505176,-0.0323482,-0.0323532,-0.0750846
0.8775000,0.8775000,0.8775000,-0.0317855,-0.0020014,-0.4465854,-0.0317855,-0.0318429,-0.0737632
0.8800000,0.8800000,0.8800000,-0.0312343,-0.0019867,-0.4426991,-0.0312343,-0.0313424,-0.0724687
0.8825000,0.8825000,0.8825000,-0.0306942,-0.0019720,-0.4388580,-0.0306942,-0.0308516,-0.0712003
0.8850000,0.8850000,0.8850000,-0.0301650,-0.0019576,-0.4350614,-0.0301650,-0.0303702,-0.0699576
0.8875000,0.8875000,0.8875000,-0.0296464,-0.0019432,-0.4313088,-0.0296464,-0.0298980,-0.0687399
0.8900000,0.8900000,0.8900000,-0.0291382,-0.0019290,-0.4275994,-0.0291382,-0.0294348,-0.0675466
0.8925000,0.8925000,0.8925000,-0.0286402,-0.0019148,-0.4239327,-0.0286402,-0.0289804,-0.0663773
0.8950000,0.8950000,0.8950000,-0.0281521,-0.0019008,-0.4203080,-0.0281521,-0.0285346,-0.0652312
0.8975000,0.8975000,0.8975000,-0.0276738,-0.0018869,-0.4167247,-0.0276738,-0.0280972,-0.0641080
0.9000000,0.9000000,0.9000000,-0.0272049,-0.0018732,-0.4131823,-0.0272049,-0.0276680,-0.0630071
0.9025000,0.9025000,0.9025000,-0.0267452,-0.0018595,-0.4096802,-0.0267452,-0.0272469,-0.0619280
0.9050000,0.9050000,0.9050000,-0.0262947,-0.0018460,-0.4062177,-0.0262947,-0.0268337,-0.0608702
0.9075000,0.9075000,0.9075000,-0.0258530,-0.0018325,-0.4027943,-0.0258530,-0.0264281,-0.0598332
0.9100000,0.9100000,0.9100000,-0.0254199,-0.0018192,-0.3994095,-0.0254199,-0.0260301,-0.0588166
0.9125000,0.9125000,0.9125000,-0.0249953,-0.0018060,-0.3960628,-0.0249953,-0.0256395,-0.0578199
0.9150000,0.9150000,0.9150000,-0.0245790,-0.0017929,-0.3927535,-0.0245790,-0.0252561,-0.0568427
0.9175000,0.9175000,0.9175000,-0.0241707,-0.0017799,-0.3894812,-0.0241707,-0.0248797,-0.0558845
0.9200000,0.9200000,0.9200000,-0.0237704,-0.0017671,-0.3862453,-0.0237704,-0.0245102,-0.0549449
0.9225000,0.9225000,0.9225000,-0.0233778,-0.0017543,-0.3830454,-0.0233778,-0.0241475,-0.0540235
0.9250000,0.9250000,0.9250000,-0.0229928,-0.0017417,-0.3798809,-0.0229928,-0.0237913,-0.0531199
0.9275000,0.9275000,0.9275000,-0.0226151,-0.0017291,-0.3767513,-0.0226151,-0.0234417,-0.0522338
0.9300000,0.9300000,0.9300000,-0.0222447,-0.0017167,-0.3736562,-0.0222447,-0.0230984,-0.0513646
0.9325000,0.9325000,0.9325000,-0.0218814,-0.0017043,-0.3705951,-0.0218814,-0.0227613,-0.0505122
0.9350000,0.9350000,0.9350000,-0.0215250,-0.0016921,-0.3675675,-0.0215250,-0.0224302,-0.0496760
0.9375000,0.9375000,0.9375000,-0.0211754,-0.0016800,-0.3645730,-0.0211754,-0.0221051,-0.0488558
0.9400000,0.9400000,0.9400000,-0.0208324,-0.0016680,-0.3616110,-0.0208324,-0.0217858,-0.0480511
0.9425000,0.9425000,0.9425000,-0.0204959,-0.0016561,-0.3586813,-0.0204959,-0.0214721,-0.0472617
0.9450000,0.9450000,0.9450000,-0.0201657,-0.0016443,-0.3557832,-0.0201657,-0.0211641,-0.0464873
0.9475000,0.9475000,0.9475000,-0.0198417,-0.0016326,-0.3529165,-0.0198417,-0.0208615,-0.0457275
0.9500000,0.9500000,0.9500000,-0.0195238,-0.0016210,-0.3500806,-0.0195238,-0.0205643,-0.0449819
0.9525000,0.9525000,0.9525000,-0.0192119,-0.0016094,-0.3472751,-0.0192119,-0.0202723,-0.0442504
0.9550000,0.9550000,0.9550000,-0.0189057,-0.0015980,-0.3444998,-0.0189057,-0.0199854,-0.0435326
0.9575000,0.9575000,0.9575000,-0.0186053,-0.0015867,-0.3417540,-0.0186053,-0.0197035,-0.0428281
0.9600000,0.9600000,0.9600000,-0.0183104,-0.0015755,-0.3390375,-0.0183104,-0.0194265,-0.0421368
0.9625000,0.9625000,0.9625000,-0.0180210,-0.0015644,-0.3363499,-0.0180210,-0.0191544,-0.0414583
0.9650000,0.9650000,0.9650000,-0.0177369,-0.0015534,-0.3336907,-0.0177369,-0.0188870,-0.0407924
0.9675000,0.9675000,0.9675000,-0.0174580,-0.0015424,-0.3310596,-0.0174580,-0.0186242,-0.0401388
0.9700000,0.9700000,0.9700000,-0.0171843,-0.0015316,-0.3284563,-0.0171843,-0.0183659,-0.0394972
0.9725000,0.9725000,0.9725000,-0.0169155,-0.0015209,-0.3258803,-0.0169155,-0.0181121,-0.0388674
0.9750000,0.9750000,0.9750000,-0.0166517,-0.0015102,-0.3233313,-0.0166517,-0.0178626,-0.0382492
0.9775000,0.9775000,0.9775000,-0.0163927,-0.0014997,-0.3208089,-0.0163927,-0.0176174,-0.0376423
0.9800000,0.9800000,0.9800000,-0.0161383,-0.0014892,-0.3183128,-0.0161383,-0.0173763,-0.0370464
0.9825000,0.9825000,0.9825000,-0.0158886,-0.0014788,-0.3158427,-0.0158886,-0.0171393,-0.0364614
0.9850000,0.9850000,0.9850000,-0.0156434,-0.0014686,-0.3133982,-0.0156434,-0.0169064,-0.0358871
0.9875000,0.9875000,0.9875000,-0.0154026,-0.0014584,-0.3109789,-0.0154026,-0.0166773,-0.0353231
0.9900000,0.9900000,0.9900000,-0.0151661,-0.0014482,-0.3085847,-0.0151661,-0.0164522,-0.0347693
0.9925000,0.9925000,0.9925000,-0.0149339,-0.0014382,-0.3062150,-0.0149339,-0.0162308,-0.0342254
0.9950000,0.9950000,0.9950000,-0.0147058,-0.0014283,-0.3038697,-0.0147058,-0.0160131,-0.0336914
0.9975000,0.9975000,0.9975000,-0.0144817,-0.0014184,-0.3015483,-0.0144817,-0.0157990,-0.0331669
1.0000000,1.0000000,1.0000000,-0.0142617,-0.0014087,-0.2992507,-0.0142617,-0.0155885,-0.0326518
1.0025000,1.0025000,1.0025000,-0.0140455,-0.0013990,-0.2969764,-0.0140455,-0.0153814,-0.0321459
1.0050000,1.0050000,1.0050000,-0.0138332,-0.0013894,-0.2947253,-0.0138332,-0.0151778,-0.0316490
1.0075000,1.0075000,1.0075000,-0.0136246,-0.0013799,-0.2924969,-0.0136246,-0.0149776,-0.0311609
1.0100000,1.0100000,1.0100000,-0.0134197,-0.0013704,-0.2902910,-0.0134197,-0.0147806,-0.0306814
1.0125000,1.0125000,1.0125000,-0.0132184,-0.0013611,-0.2881074,-0.0132184,-0.0145869,-0.0302105
1.0150000,1.0150000,1.0150000,-0.0130206,-0.0013518,-0.2859457,-0.0130206,-0.0143963,-0.0297478
1.0175000,1.0175000,1.0175000,-0.0128263,-0.0013426,-0.2838057,-0.0128263,-0.0142088,-0.0292932
1.0200000,1.0200000,1.0200000,-0.0126353,-0.0013335,-0.2816870,-0.0126353,-0.0140244,-0.0288466
1.0225000,1.0225000,1.0225000,-0.0124477,-0.0013245,-0.2795895,-0.0124477,-0.0138429,-0.0284078
1.0250000,1.0250000,1.0250000,-0.0122633,-0.0013155,-0.2775129,-0.0122633,-0.0136644,-0.0279767
1.0275000,1.0275000,1.0275000,-0.0120821,-0.0013066,-0.2754569,-0.0120821,-0.0134887,-0.0275531
1.0300000,1.0300000,1.0300000,-0.0119040,-0.0012978,-0.2734212,-0.0119040,-0.0133159,-0.0271368
1.0325000,1.0325000,1.0325000,-0.0117290,-0.0012891,-0.2714056,-0.0117290,-0.0131458,-0.0267278
1.0350000,1.0350000,1.0350000,-0.0115570,-0.0012804,-0.2694098,-0.0115570,-0.0129784,-0.0263258
1.0375000,1.0375000,1.0375000,-0.0113879,-0.0012718,-0.2674337,-0.0113879,-0.0128137,-0.0259307
1.0400000,1.0400000,1.0400000,-0.0112218,-0.0012633,-0.2654769,-0.0112218,-0.0126516,-0.0255425
1.0425000,1.0425000,1.0425000,-0.0110584,-0.0012548,-0.2635392,-0.0110584,-0.0124921,-0.0251609
1.0450000,1.0450000,1.0450000,-0.0108978,-0.0012465,-0.2616205,-0.0108978,-0.0123351,-0.0247858
1.0475000,1.0475000,1.0475000,-0.0107400,-0.0012382,-0.2597204,-0.0107400,-0.0121806,-0.0244171
1.0500000,1.0500000,1.0500000,-0.0105848,-0.0012299,-0.2578387,-0.0105848,-0.0120284,-0.0240548
1.0525000,1.0525000,1.0525000,-0.0104322,-0.0012218,-0.2559752,-0.0104322,-0.0118787,-0.0236985
1.0550000,1.0550000,1.0550000,-0.0102822,-0.0012137,-0.2541297,-0.0102822,-0.0117313,-0.0233483
1.0575000,1.0575000,1.0575000,-0.0101347,-0.0012057,-0.2523020,-0.0101347,-0.0115861,-0.0230041
1.0600000,1.0600000,1.0600000,-0.0099897,-0.0011977,-0.2504919,-0.0099897,-0.0114433,-0.0226656
1.0625000,1.0625000,1.0625000,-0.0098471,-0.0011898,-0.2486991,-0.0098471,-0.0113026,-0.0223329
1.0650000,1.0650000,1.0650000,-0.0097069,-0.0011820,-0.2469234,-0.0097069,-0.0111641,-0.0220057
1.0675000,1.0675000,1.0675000,-0.0095690,-0.0011742,-0.2451647,-0.0095690,-0.0110277,-0.0216840
1.0700000,1.0700000,1.0700000,-0.0094334,-0.0011665,-0.2434226,-0.0094334,-0.0108934,-0.0213677
1.0725000,1.0725000,1.0725000,-0.0093000,-0.0011589,-0.2416972,-0.0093000,-0.0107612,-0.0210567
1.0750000,1.0750000,1.0750000,-0.0091688,-0.0011513,-0.2399880,-0.0091688,-0.0106310,-0.0207508
1.0775000,1.0775000,1.0775000,-0.0090398,-0.0011438,-0.2382950,-0.0090398,-0.0105027,-0.0204500
1.0800000,1.0800000,1.0800000,-0.0089129,-0.0011364,-0.2366180,-0.0089129,-0.0103764,-0.0201543
1.0825000,1.0825000,1.0825000,-0.0087881,-0.0011290,-0.2349567,-0.0087881,-0.0102520,-0.0198633
1.0850000,1.0850000,1.0850000,-0.0086653,-0.0011217,-0.2333110,-0.0086653,-0.0101295,-0.0195772
1.0875000,1.0875000,1.0875000,-0.0085446,-0.0011144,-0.2316806,-0.0085446,-0.0100088,-0.0192958
1.0900000,1.0900000,1.0900000,-0.0084257,-0.0011072,-0.2300655,-0.0084257,-0.0098899,-0.0190191
1.0925000,1.0925000,1.0925000,-0.0083089,-0.0011001,-0.2284654,-0.0083089,-0.0097728,-0.0187468
1.0950000,1.0950000,1.0950000,-0.0081939,-0.0010930,-0.2268802,-0.0081939,-0.0096575,-0.0184790
1.0975000,1.0975000,1.0975000,-0.0080807,-0.0010860,-0.2253097,-0.0080807,-0.0095438,-0.0182156
1.1000000,1.1000000,1.1000000,-0.0079694,-0.0010790,-0.2237537,-0.0079694,-0.0094319,-0.0179565
1.1025000,1.1025000,1.1025000,-0.0078599,-0.0010721,-0.2222120,-0.0078599,-0.0093216,-0.0177015
1.1050000,1.1050000,1.1050000,-0.0077521,-0.0010653,-0.2206846,-0.0077521,-0.0092129,-0.0174507
1.1075000,1.1075000,1.1075000,-0.0076461,-0.0010585,-0.2191711,-0.0076461,-0.0091058,-0.0172040
1.1100000,1.1100000,1.1100000,-0.0075418,-0.0010517,-0.2176715,-0.0075418,-0.0090003,-0.0169612
1.1125000,1.1125000,1.1125000,-0.0074391,-0.0010451,-0.2161856,-0.0074391,-0.0088963,-0.0167223
1.1150000,1.1150000,1.1150000,-0.0073380,-0.0010384,-0.2147133,-0.0073380,-0.0087938,-0.0164873
1.1175000,1.1175000,1.1175000,-0.0072386,-0.0010319,-0.2132543,-0.0072386,-0.0086929,-0.0162560
1.1200000,1.1200000,1.1200000,-0.0071407,-0.0010253,-0.2118086,-0.0071407,-0.0085934,-0.0160285
1.1225000,1.1225000,1.1225000,-0.0070443,-0.0010189,-0.2103759,-0.0070443,-0.0084953,-0.0158045
1.1250000,1.1250000,1.1250000,-0.0069495,-0.0010125,-0.2089562,-0.0069495,-0.0083986,-0.0155841
1.1275000,1.1275000,1.1275000,-0.0068562,-0.0010061,-0.2075493,-0.0068562,-0.0083034,-0.0153673
1.1300000,1.1300000,1.1300000,-0.0067643,-0.0009998,-0.2061550,-0.0067643,-0.0082095,-0.0151538
1.1325000,1.1325000,1.1325000,-0.0066739,-0.0009935,-0.2047733,-0.0066739,-0.0081169,-0.0149438
1.1350000,1.1350000,1.1350000,-0.0065848,-0.0009873,-0.2034039,-0.0065848,-0.0080256,-0.0147370
1.1375000,1.1375000,1.1375000,-0.0064972,-0.0009812,-0.2020467,-0.0064972,-0.0079357,-0.0145335
1.1400000,1.1400000,1.1400000,-0.0064109,-0.0009750,-0.2007016,-0.0064109,-0.0078470,-0.0143332
1.1425000,1.1425000,1.1425000,-0.0063260,-0.0009690,-0.1993685,-0.0063260,-0.0077596,-0.0141361
1.1450000,1.1450000,1.1450000,-0.0062424,-0.0009630,-0.1980472,-0.0062424,-0.0076734,-0.0139420
1.1475000,1.1475000,1.1475000,-0.0061600,-0.0009570,-0.1967376,-0.0061600,-0.0075884,-0.0137510
1.1500000,1.1500000,1.1500000,-0.0060790,-0.0009511,-0.1954396,-0.0060790,-0.0075047,-0.0135629
1.1525000,1.1525000,1.1525000,-0.0059991,-0.0009452,-0.1941529,-0.0059991,-0.0074220,-0.0133777
1.1550000,1.1550000,1.1550000,-0.0059205,-0.0009394,-0.1928776,-0.0059205,-0.0073406,-0.0131955
1.1575000,1.1575000,1.1575000,-0.0058431,-0.0009336,-0.1916135,-0.0058431,-0.0072603,-0.0130160
1.1600000,1.1600000,1.1600000,-0.0057669,-0.0009279,-0.1903605,-0.0057669,-0.0071810,-0.0128393
1.1625000,1.1625000,1.1625000,-0.0056918,-0.0009222,-0.1891183,-0.0056918,-0.0071029,-0.0126654
1.1650000,1.1650000,1.1650000,-0.0056179,-0.0009166,-0.1878870,-0.0056179,-0.0070259,-0.0124941
1.1675000,1.1675000,1.1675000,-0.0055451,-0.0009110,-0.1866664,-0.0055451,-0.0069499,-0.0123255
1.1700000,1.1700000,1.1700000,-0.0054734,-0.0009054,-0.1854564,-0.0054734,-0.0068750,-0.0121594
1.1725000,1.1725000,1.1725000,-0.0054028,-0.0008999,-0.1842569,-0.0054028,-0.0068011,-0.0119959
1.1750000,1.1750000,1.1750000,-0.0053332,-0.0008945,-0.1830677,-0.0053332,-0.0067282,-0.0118348
1.1775000,1.1775000,1.1775000,-0.0052647,-0.0008890,-0.1818887,-0.0052647,-0.0066563,-0.0116763
1.1800000,1.1800000,1.1800000,-0.0051972,-0.0008837,-0.1807199,-0.0051972,-0.0065853,-0.0115201
1.1825000,1.1825000,1.1825000,-0.0051308,-0.0008783,-0.1795611,-0.0051308,-0.0065154,-0.0113663
1.1850000,1.1850000,1.1850000,-0.0050653,-0.0008730,-0.1784123,-0.0050653,-0.0064463,-0.0112148
1.1875000,1.1875000,1.1875000,-0.0050008,-0.0008678,-0.1772732,-0.0050008,-0.0063783,-0.0110656
1.1900000,1.1900000,1.1900000,-0.0049372,-0.0008626,-0.1761439,-0.0049372,-0.0063111,-0.0109187
1.1925000,1.1925000,1.1925000,-0.0048746,-0.0008574,-0.1750241,-0.0048746,-0.0062448,-0.0107740
1.1950000,1.1950000,1.1950000,-0.0048129,-0.0008523,-0.1739139,-0.0048129,-0.0061794,-0.0106314
1.1975000,1.1975000,1.1975000,-0.0047522,-0.0008472,-0.1728131,-0.0047522,-0.0061149,-0.0104910
1.2000000,1.2000000,1.2000000,-0.0046923,-0.0008421,-0.1717215,-0.0046923,-0.0060512,-0.0103527
1.2025000,1.2025000,1.2025000,-0.0046333,-0.0008371,-0.1706392,-0.0046333,-0.0059884,-0.0102164
1.2050000,1.2050000,1.2050000,-0.0045751,-0.0008321,-0.1695659,-0.0045751,-0.0059264,-0.0100822
1.2075000,1.2075000,1.2075000,-0.0045179,-0.0008272,-0.1685017,-0.0045179,-0.0058653,-0.0099499
1.2100000,1.2100000,1.2100000,-0.0044614,-0.0008223,-0.1674464,-0.0044614,-0.0058049,-0.0098197
1.2125000,1.2125000,1.2125000,-0.0044058,-0.0008175,-0.1663999,-0.0044058,-0.0057453,-0.0096913
1.2150000,1.2150000,1.2150000,-0.0043510,-0.0008126,-0.1653622,-0.0043510,-0.0056865,-0.0095649
1.2175000,1.2175000,1.2175000,-0.0042970,-0.0008078,-0.1643331,-0.0042970,-0.0056285,-0.0094403
1.2200000,1.2200000,1.2200000,-0.0042437,-0.0008031,-0.1633125,-0.0042437,-0.0055712,-0.0093175
1.2225000,1.2225000,1.2225000,-0.0041913,-0.0007984,-0.1623004,-0.0041913,-0.0055147,-0.0091966
1.2250000,1.2250000,1.2250000,-0.0041396,-0.0007937,-0.1612966,-0.0041396,-0.0054589,-0.0090774
1.2275000,1.2275000,1.2275000,-0.0040886,-0.0007891,-0.1603012,-0.0040886,-0.0054039,-0.0089599
1.2300000,1.2300000,1.2300000,-0.0040384,-0.0007845,-0.1593139,-0.0040384,-0.0053495,-0.0088442
1.2325000,1.2325000,1.2325000,-0.0039889,-0.0007799,-0.1583348,-0.0039889,-0.0052959,-0.0087302
1.2350000,1.2350000,1.2350000,-0.0039401,-0.0007754,-0.1573637,-0.0039401,-0.0052429,-0.0086178
1.2375000,1.2375000,1.2375000,-0.0038919,-0.0007709,-0.1564005,-0.0038919,-0.0051906,-0.0085071
1.2400000,1.2400000,1.2400000,-0.0038445,-0.0007664,-0.1554452,-0.0038445,-0.0051390,-0.0083979
1.2425000,1.2425000,1.2425000,-0.0037978,-0.0007620,-0.1544977,-0.0037978,-0.0050880,-0.0082904
1.2450000,1.2450000,1.2450000,-0.0037517,-0.0007576,-0.1535579,-0.0037517,-0.0050377,-0.0081844
1.2475000,1.2475000,1.2475000,-0.0037063,-0.0007532,-0.1526258,-0.0037063,-0.0049880,-0.0080799
1.2500000,1.2500000,1.2500000,-0.0036615,-0.0007489,-0.1517012,-0.0036615,-0.0049390,-0.0079769
1.2525000,1.2525000,1.2525000,-0.0036173,-0.0007446,-0.1507840,-0.0036173,-0.0048905,-0.0078754
1.2550000,1.2550000,1.2550000,-0.0035738,-0.0007403,-0.1498743,-0.0035738,-0.0048427,-0.0077753
1.2575000,1.2575000,1.2575000,-0.0035308,-0.0007361,-0.1489719,-0.0035308,-0.0047955,-0.0076767
1.2600000,1.2600000,1.2600000,-0.0034885,-0.0007319,-0.1480767,-0.0034885,-0.0047488,-0.0075795
1.2625000,1.2625000,1.2625000,-0.0034468,-0.0007277,-0.1471887,-0.0034468,-0.0047028,-0.0074837
1.2650000,1.2650000,1.2650000,-0.0034056,-0.0007236,-0.1463078,-0.0034056,-0.0046573,-0.0073892
1.2675000,1.2675000,1.2675000,-0.0033650,-0.0007194,-0.1454340,-0.0033650,-0.0046124,-0.0072961
1.2700000,1.2700000,1.2700000,-0.0033250,-0.0007154,-0.1445671,-0.0033250,-0.0045680,-0.0072043
1.2725000,1.2725000,1.2725000,-0.0032856,-0.0007113,-0.1437071,-0.0032856,-0.0045242,-0.0071138
1.2750000,1.2750000,1.2750000,-0.0032467,-0.0007073,-0.1428540,-0.0032467,-0.0044809,-0.0070245
1.2775000,1.2775000,1.2775000,-0.0032083,-0.0007033,-0.1420076,-0.0032083,-0.0044382,-0.0069366
1.2800000,1.2800000,1.2800000,-0.0031704,-0.0006993,-0.1411679,-0.0031704,-0.0043960,-0.0068498
1.2825000,1.2825000,1.2825000,-0.0031331,-0.0006954,-0.1403348,-0.0031331,-0.0043543,-0.0067643
1.2850000,1.2850000,1.2850000,-0.0030963,-0.0006915,-0.1395083,-0.0030963,-0.0043131,-0.0066800
1.2875000,1.2875000,1.2875000,-0.0030600,-0.0006876,-0.1386883,-0.0030600,-0.0042724,-0.0065968
1.2900000,1.2900000,1.2900000,-0.0030242,-0.0006838,-0.1378747,-0.0030242,-0.0042322,-0.0065148
1.2925000,1.2925000,1.2925000,-0.0029889,-0.0006800,-0.1370675,-0.0029889,-0.0041925,-0.0064340
1.2950000,1.2950000,1.2950000,-0.0029540,-0.0006762,-0.1362665,-0.0029540,-0.0041533,-0.0063543
1.2975000,1.2975000,1.2975000,-0.0029196,-0.0006724,-0.1354719,-0.0029196,-0.0041145,-0.0062757
1.3000000,1.3000000,1.3000000,-0.0028857,-0.0006687,-0.1346834,-0.0028857,-0.0040762,-0.0061981
1.3025000,1.3025000,1.3025000,-0.0028523,-0.0006650,-0.1339010,-0.0028523,-0.0040384,-0.0061217
1.3050000,1.3050000,1.3050000,-0.0028193,-0.0006613,-0.1331247,-0.0028193,-0.0040010,-0.0060463
1.3075000,1.3075000,1.3075000,-0.0027868,-0.0006576,-0.1323544,-0.0027868,-0.0039641,-0.0059719
1.3100000,1.3100000,1.3100000,-0.0027547,-0.0006540,-0.1315901,-0.0027547,-0.0039276,-0.0058986
1.3125000,1.3125000,1.3125000,-0.0027230,-0.0006504,-0.1308316,-0.0027230,-0.0038916,-0.0058263
1.3150000,1.3150000,1.3150000,-0.0026917,-0.0006468,-0.1300790,-0.0026917,-0.0038559,-0.0057549
1.3175000,1.3175000,1.3175000,-0.0026609,-0.0006433,-0.1293321,-0.0026609,-0.0038207,-0.0056846
1.3200000,1.3200000,1.3200000,-0.0026305,-0.0006398,-0.1285910,-0.0026305,-0.0037859,-0.0056152
1.3225000,1.3225000,1.3225000,-0.0026005,-0.0006363,-0.1278556,-0.0026005,-0.0037515,-0.0055467
1.3250000,1.3250000,1.3250000,-0.0025708,-0.0006328,-0.1271257,-0.0025708,-0.0037176,-0.0054792
1.3275000,1.3275000,1.3275000,-0.0025416,-0.0006293,-0.1264014,-0.0025416,-0.0036840,-0.0054126
1.3300000,1.3300000,1.3300000,-0.0025128,-0.0006259,-0.1256827,-0.0025128,-0.0036508,-0.0053469
1.3325000,1.3325000,1.3325000,-0.0024843,-0.0006225,-0.1249693,-0.0024843,-0.0036180,-0.0052821
1.3350000,1.3350000,1.3350000,-0.0024563,-0.0006191,-0.1242614,-0.0024563,-0.0035856,-0.0052181
1.3375000,1.3375000,1.3375000,-0.0024285,-0.0006158,-0.1235588,-0.0024285,-0.0035535,-0.0051551
1.3400000,1.3400000,1.3400000,-0.0024012,-0.0006125,-0.1228616,-0.0024012,-0.0035218,-0.0050928
1.3425000,1.3425000,1.3425000,-0.0023742,-0.0006092,-0.1221695,-0.0023742,-0.0034905,-0.0050314
1.3450000,1.3450000,1.3450000,-0.0023476,-0.0006059,-0.1214827,-0.0023476,-0.0034596,-0.0049709
1.3475000,1.3475000,1.3475000,-0.0023213,-0.0006026,-0.1208010,-0.0023213,-0.0034290,-0.0049111
1.3500000,1.3500000,1.3500000,-0.0022954,-0.0005994,-0.1201245,-0.0022954,-0.0033987,-0.0048522
1.3525000,1.3525000,1.3525000,-0.0022698,-0.0005962,-0.1194529,-0.0022698,-0.0033689,-0.0047940
1.3550000,1.3550000,1.3550000,-0.0022445,-0.0005930,-0.1187864,-0.0022445,-0.0033393,-0.0047366
1.3575000,1.3575000,1.3575000,-0.0022196,-0.0005898,-0.1181249,-0.0022196,-0.0033101,-0.0046800
1.3600000,1.3600000,1.3600000,-0.0021949,-0.0005867,-0.1174683,-0.0021949,-0.0032812,-0.0046241
1.3625000,1.3625000,1.3625000,-0.0021707,-0.0005836,-0.1168165,-0.0021707,-0.0032526,-0.0045690
1.3650000,1.3650000,1.3650000,-0.0021467,-0.0005805,-0.1161696,-0.0021467,-0.0032244,-0.0045146
1.3675000,1.3675000,1.3675000,-0.0021230,-0.0005774,-0.1155274,-0.0021230,-0.0031965,-0.0044609
1.3700000,1.3700000,1.3700000,-0.0020996,-0.0005743,-0.1148900,-0.0020996,-0.0031689,-0.0044079
1.3725000,1.3725000,1.3725000,-0.0020766,-0.0005713,-0.1142573,-0.0020766,-0.0031416,-0.0043556
1.3750000,1.3750000,1.3750000,-0.0020538,-0.0005683,-0.1136292,-0.0020538,-0.0031146,-0.0043040
1.3775000,1.3775000,1.3775000,-0.0020313,-0.0005653,-0.1130057,-0.0020313,-0.0030879,-0.0042531
1.3800000,1.3800000,1.3800000,-0.0020091,-0.0005623,-0.1123868,-0.0020091,-0.0030615,-0.0042029
1.3825000,1.3825000,1.3825000,-0.0019872,-0.0005593,-0.1117724,-0.0019872,-0.0030354,-0.0041533
1.3850000,1.3850000,1.3850000,-0.0019655,-0.0005564,-0.1111625,-0.0019655,-0.0030096,-0.0041044
1.3875000,1.3875000,1.3875000,-0.0019442,-0.0005535,-0.1105571,-0.0019442,-0.0029841,-0.0040560
1.3900000,1.3900000,1.3900000,-0.0019231,-0.0005506,-0.1099560,-0.0019231,-0.0029588,-0.0040084
1.3925000,1.3925000,1.3925000,-0.0019023,-0.0005477,-0.1093593,-0.0019023,-0.0029338,-0.0039613
1.3950000,1.3950000,1.3950000,-0.0018817,-0.0005449,-0.1087669,-0.0018817,-0.0029092,-0.0039149
1.3975000,1.3975000,1.3975000,-0.0018614,-0.0005421,-0.1081788,-0.0018614,-0.0028847,-0.0038690
1.4000000,1.4000000,1.4000000,-0.0018414,-0.0005392,-0.1075950,-0.0018414,-0.0028606,-0.0038238
1.4025000,1.4025000,1.4025000,-0.0018216,-0.0005364,-0.1070153,-0.0018216,-0.0028367,-0.0037791
1.4050000,1.4050000,1.4050000,-0.0018020,-0.0005337,-0.1064398,-0.0018020,-0.0028131,-0.0037350
1.4075000,1.4075000,1.4075000,-0.0017827,-0.0005309,-0.1058684,-0.0017827,-0.0027897,-0.0036915
1.4100000,1.4100000,1.4100000,-0.0017637,-0.0005282,-0.1053012,-0.0017637,-0.0027666,-0.0036485
1.4125000,1.4125000,1.4125000,-0.0017449,-0.0005255,-0.1047379,-0.0017449,-0.0027437,-0.0036061
1.4150000,1.4150000,1.4150000,-0.0017263,-0.0005228,-0.1041787,-0.0017263,-0.0027211,-0.0035643
1.4175000,1.4175000,1.4175000,-0.0017079,-0.0005201,-0.1036235,-0.0017079,-0.0026987,-0.0035229
1.4200000,1.4200000,1.4200000,-0.0016898,-0.0005174,-0.1030723,-0.0016898,-0.0026765,-0.0034821
1.4225000,1.4225000,1.4225000,-0.0016719,-0.0005148,-0.1025249,-0.0016719,-0.0026546,-0.0034419
1.4250000,1.4250000,1.4250000,-0.0016542,-0.0005121,-0.1019814,-0.0016542,-0.0026330,-0.0034021
1.4275000,1.4275000,1.4275000,-0.0016367,-0.0005095,-0.1014418,-0.0016367,-0.0026115,-0.0033628
1.4300000,1.4300000,1.4300000,-0.0016195,-0.0005069,-0.1009060,-0.0016195,-0.0025903,-0.0033241
1.4325000,1.4325000,1.4325000,-0.0016024,-0.0005044,-0.1003739,-0.0016024,-0.0025693,-0.0032858
1.4350000,1.4350000,1.4350000,-0.0015856,-0.0005018,-0.0998456,-0.0015856,-0.0025486,-0.0032480
1.4375000,1.4375000,1.4375000,-0.0015690,-0.0004993,-0.0993210,-0.0015690,-0.0025280,-0.0032107
1.4400000,1.4400000,1.4400000,-0.0015526,-0.0004967,-0.0988001,-0.0015526,-0.0025077,-0.0031738
1.4425000,1.4425000,1.4425000,-0.0015363,-0.0004942,-0.0982828,-0.0015363,-0.0024876,-0.0031374
1.4450000,1.4450000,1.4450000,-0.0015203,-0.0004917,-0.0977691,-0.0015203,-0.0024677,-0.0031015
1.4475000,1.4475000,1.4475000,-0.0015045,-0.0004893,-0.0972591,-0.0015045,-0.0024480,-0.0030661
1.4500000,1.4500000,1.4500000,-0.0014889,-0.0004868,-0.0967525,-0.0014889,-0.0024285,-0.0030310
1.4525000,1.4525000,1.4525000,-0.0014734,-0.0004844,-0.0962495,-0.0014734,-0.0024092,-0.0029964
1.4550000,1.4550000,1.4550000,-0.0014582,-0.0004819,-0.0957500,-0.0014582,-0.0023901,-0.0029623
1.4575000,1.4575000,1.4575000,-0.0014431,-0.0004795,-0.0952539,-0.0014431,-0.0023713,-0.0029286
1.4600000,1.4600000,1.4600000,-0.0014282,-0.0004771,-0.0947613,-0.0014282,-0.0023526,-0.0028952
1.4625000,1.4625000,1.4625000,-0.0014135,-0.0004748,-0.0942720,-0.0014135,-0.0023341,-0.0028624
1.4650000,1.4650000,1.4650000,-0.0013989,-0.0004724,-0.0937862,-0.0013989,-0.0023158,-0.0028299
1.4675000,1.4675000,1.4675000,-0.0013846,-0.0004700,-0.0933036,-0.0013846,-0.0022976,-0.0027978
1.4700000,1.4700000,1.4700000,-0.0013704,-0.0004677,-0.0928244,-0.0013704,-0.0022797,-0.0027661
1.4725000,1.4725000,1.4725000,-0.0013564,-0.0004654,-0.0923485,-0.0013564,-0.0022620,-0.0027348
1.4750000,1.4750000,1.4750000,-0.0013425,-0.0004631,-0.0918758,-0.0013425,-0.0022444,-0.0027039
1.4775000,1.4775000,1.4775000,-0.0013288,-0.0004608,-0.0914063,-0.0013288,-0.0022270,-0.0026734
1.4800000,1.4800000,1.4800000,-0.0013153,-0.0004585,-0.0909401,-0.0013153,-0.0022098,-0.0026432
1.4825000,1.4825000,1.4825000,-0.0013019,-0.0004563,-0.0904770,-0.0013019,-0.0021927,-0.0026134
1.4850000,1.4850000,1.4850000,-0.0012887,-0.0004540,-0.0900170,-0.0012887,-0.0021759,-0.0025840
1.4875000,1.4875000,1.4875000,-0.0012757,-0.0004518,-0.0895602,-0.0012757,-0.0021592,-0.0025550
1.4900000,1.4900000,1.4900000,-0.0012628,-0.0004496,-0.0891065,-0.0012628,-0.0021427,-0.0025263
1.4925000,1.4925000,1.4925000,-0.0012500,-0.0004474,-0.0886558,-0.0012500,-0.0021263,-0.0024979
1.4950000,1.4950000,1.4950000,-0.0012375,-0.0004452,-0.0882082,-0.0012375,-0.0021101,-0.0024699
1.4975000,1.4975000,1.4975000,-0.0012250,-0.0004430,-0.0877636,-0.0012250,-0.0020941,-0.0024423
1.5000000,1.5000000,1.5000000,-0.0012127,-0.0004409,-0.0873220,-0.0012127,-0.0020782,-0.0024149
1.5025000,1.5025000,1.5025000,-0.0012006,-0.0004387,-0.0868833,-0.0012006,-0.0020625,-0.0023879
1.5050000,1.5050000,1.5050000,-0.0011885,-0.0004366,-0.0864476,-0.0011885,-0.0020469,-0.0023613
1.5075000,1.5075000,1.5075000,-0.0011767,-0.0004345,-0.0860148,-0.0011767,-0.0020315,-0.0023349
1.5100000,1.5100000,1.5100000,-0.0011649,-0.0004324,-0.0855849,-0.0011649,-0.0020163,-0.0023089
1.5125000,1.5125000,1.5125000,-0.0011533,-0.0004303,-0.0851579,-0.0011533,-0.0020012,-0.0022832
1.5150000,1.5150000,1.5150000,-0.0011419,-0.0004282,-0.0847337,-0.0011419,-0.0019862,-0.0022578
1.5175000,1.5175000,1.5175000,-0.0011305,-0.0004262,-0.0843123,-0.0011305,-0.0019714,-0.0022327
1.5200000,1.5200000,1.5200000,-0.0011193,-0.0004241,-0.0838937,-0.0011193,-0.0019567,-0.0022079
1.5225000,1.5225000,1.5225000,-0.0011083,-0.0004221,-0.0834779,-0.0011083,-0.0019422,-0.0021834
1.5250000,1.5250000,1.5250000,-0.0010973,-0.0004201,-0.0830648,-0.0010973,-0.0019279,-0.0021592
1.5275000,1.5275000,1.5275000,-0.0010865,-0.0004181,-0.0826545,-0.0010865,-0.0019136,-0.0021353
1.5300000,1.5300000,1.5300000,-0.0010758,-0.0004161,-0.0822468,-0.0010758,-0.0018995,-0.0021117
1.5325000,1.5325000,1.5325000,-0.0010652,-0.0004141,-0.0818419,-0.0010652,-0.0018856,-0.0020883
1.5350000,1.5350000,1.5350000,-0.0010548,-0.0004121,-0.0814396,-0.0010548,-0.0018717,-0.0020653
1.5375000,1.5375000,1.5375000,-0.0010445,-0.0004101,-0.0810399,-0.0010445,-0.0018580,-0.0020425
1.5400000,1.5400000,1.5400000,-0.0010343,-0.0004082,-0.0806429,-0.0010343,-0.0018445,-0.0020200
1.5425000,1.5425000,1.5425000,-0.0010242,-0.0004063,-0.0802484,-0.0010242,-0.0018311,-0.0019977
1.5450000,1.5450000,1.5450000,-0.0010142,-0.0004043,-0.0798565,-0.0010142,-0.0018178,-0.0019757
1.5475000,1.5475000,1.5475000,-0.0010043,-0.0004024,-0.0794672,-0.0010043,-0.0018046,-0.0019540
1.5500000,1.5500000,1.5500000,-0.0009946,-0.0004005,-0.0790804,-0.0009946,-0.0017915,-0.0019325
1.5525000,1.5525000,1.5525000,-0.0009849,-0.0003986,-0.0786961,-0.0009849,-0.0017786,-0.0019113
1.5550000,1.5550000,1.5550000,-0.0009754,-0.0003968,-0.0783143,-0.0009754,-0.0017658,-0.0018904
1.5575000,1.5575000,1.5575000,-0.0009659,-0.0003949,-0.0779350,-0.0009659,-0.0017532,-0.0018696
1.5600000,1.5600000,1.5600000,-0.0009566,-0.0003930,-0.0775581,-0.0009566,-0.0017406,-0.0018492
1.5625000,1.5625000,1.5625000,-0.0009474,-0.0003912,-0.0771837,-0.0009474,-0.0017282,-0.0018289
1.5650000,1.5650000,1.5650000,-0.0009383,-0.0003894,-0.0768117,-0.0009383,-0.0017158,-0.0018089
1.5675000,1.5675000,1.5675000,-0.0009293,-0.0003876,-0.0764420,-0.0009293,-0.0017036,-0.0017892
1.5700000,1.5700000,1.5700000,-0.0009204,-0.0003857,-0.0760748,-0.0009204,-0.0016915,-0.0017696
1.5725000,1.5725000,1.5725000,-0.0009116,-0.0003840,-0.0757099,-0.0009116,-0.0016796,-0.0017503
1.5750000,1.5750000,1.5750000,-0.0009029,-0.0003822,-0.0753473,-0.0009029,-0.0016677,-0.0017312
1.5775000,1.5775000,1.5775000,-0.0008942,-0.0003804,-0.0749870,-0.0008942,-0.0016560,-0.0017124
1.5800000,1.5800000,1.5800000,-0.0008857,-0.0003786,-0.0746291,-0.0008857,-0.0016443,-0.0016938
1.5825000,1.5825000,1.5825000,-0.0008773,-0.0003769,-0.0742734,-0.0008773,-0.0016328,-0.0016753
1.5850000,1.5850000,1.5850000,-0.0008690,-0.0003751,-0.0739199,-0.0008690,-0.0016214,-0.0016571
1.5875000,1.5875000,1.5875000,-0.0008607,-0.0003734,-0.0735688,-0.0008607,-0.0016100,-0.0016391
1.5900000,1.5900000,1.5900000,-0.0008526,-0.0003717,-0.0732198,-0.0008526,-0.0015988,-0.0016213
1.5925000,1.5925000,1.5925000,-0.0008445,-0.0003700,-0.0728731,-0.0008445,-0.0015877,-0.0016038
1.5950000,1.5950000,1.5950000,-0.0008366,-0.0003683,-0.0725285,-0.0008366,-0.0015767,-0.0015864
1.5975000,1.5975000,1.5975000,-0.0008287,-0.0003666,-0.0721861,-0.0008287,-0.0015658,-0.0015692
