# r[nm],d[nm],daligned[nm],U(d)[kj/mol],V(d)[e/nm],Uslab(d)[kJ/mol],UC(d)[kJ/mol],UK(d)[kJ/mol],UCl(d)[kJ/mol]
0.1850000,0.1850000,0.1850000,1656.1386002,-0.4625746,396.8023840,1656.1386002,1045.8693624,inf
0.1875000,0.1875000,0.1875000,1467.3520687,-0.4545697,342.0543939,1467.3520687,926.0425482,inf
0.1900000,0.1900000,0.1900000,1301.3377442,-0.4466192,295.4078410,1301.3377442,820.7331124,inf
0.1925000,0.1925000,0.1925000,1155.1747250,-0.4387314,255.5742455,1155.1747250,728.0746274,inf
0.1950000,0.1950000,0.1950000,1026.3433040,-0.4309138,221.4847630,1026.3433040,646.4573693,inf
0.1975000,0.1975000,0.1975000,912.6657562,-0.4231726,192.2474052,912.6657562,574.4899601,inf
0.2000000,0.2000000,0.2000000,812.2465981,-0.4151046,167.1106321,812.2465981,510.9293613,inf
0.2025000,0.2025000,0.2025000,721.9553798,-0.3628875,145.4362515,721.9553798,453.8156968,inf
0.2050000,0.2050000,0.2050000,635.2124533,-0.3080690,126.6845597,635.2124533,400.0363702,inf
0.2075000,0.2075000,0.2075000,558.2064581,-0.3028705,110.4044031,558.2064581,351.5595363,inf
0.2100000,0.2100000,0.2100000,491.1334657,-0.2993628,96.2190586,491.1334657,309.1928056,inf
0.2125000,0.2125000,0.2125000,432.6673056,-0.2958820,83.8168935,432.6673056,272.2745394,1806.6423564
0.2150000,0.2150000,0.2150000,381.6392483,-0.2923676,72.9532619,381.6392483,240.0821645,1595.1483258
0.2175000,0.2175000,0.2175000,337.0479298,-0.2888220,63.4445351,337.0479298,211.9806519,1410.0023618
0.2200000,0.2200000,0.2200000,298.0350213,-0.2852518,55.1449571,298.0350213,187.4233133,1247.7116871
0.2225000,0.2225000,0.2225000,263.8636383,-0.2816634,47.9240810,263.8636383,165.9404110,1105.2762506
0.2250000,0.2250000,0.2250000,233.9001277,-0.2780631,41.6575746,233.9001277,147.1279745,980.1149152
0.2275000,0.2275000,0.2275000,207.5987374,-0.2744564,36.2275961,207.5987374,130.6380925,870.0033534
0.2300000,0.2300000,0.2300000,184.4886916,-0.2708487,31.5255673,184.4886916,116.1706420,773.0216898
0.2325000,0.2325000,0.2325000,164.1632739,-0.2672447,27.4539687,164.1632739,103.4662537,687.5102760
0.2350000,0.2350000,0.2350000,146.2705869,-0.2636491,23.9266683,146.2705869,92.3003049,612.0322672
0.2375000,0.2375000,0.2375000,130.5057082,-0.2600666,20.8682710,130.5057082,82.4777662,545.3418931
0.2400000,0.2400000,0.2400000,116.6040116,-0.2565027,18.2130643,116.6040116,73.8287684,486.3575122
0.2425000,0.2425000,0.2425000,104.3354506,-0.2529645,15.9039512,104.3354506,66.2048077,434.1386858
0.2450000,0.2450000,0.2450000,93.4996373,-0.2494626,13.8915305,93.4996373,59.4755607,387.8666404
0.2475000,0.2475000,0.2475000,83.9215828,-0.2460128,12.1333054,83.9215828,53.5263137,346.8275898
0.2500000,0.2500000,0.2500000,75.4480040,-0.2426385,10.5929363,75.4480040,48.2560148,310.3984751
0.2525000,0.2525000,0.2525000,67.9441475,-0.2393721,9.2394920,67.9441475,43.5759087,278.0347523
0.2550000,0.2550000,0.2550000,61.2911166,-0.2362536,8.0467211,61.2911166,39.4086328,249.2599183
0.2575000,0.2575000,0.2575000,55.3837078,-0.2333279,6.9923974,55.3837078,35.6875580,223.6565139
0.2600000,0.2600000,0.2600000,50.1287579,-0.2306369,6.0577632,50.1287579,32.3561203,200.8583832
0.2625000,0.2625000,0.2625000,45.4439669,-0.2282100,5.2270420,45.4439669,29.3669310,180.5440055
0.2650000,0.2650000,0.2650000,41.2571059,-0.2260535,4.4869760,41.2571059,26.6805956,162.4307406
0.2675000,0.2675000,0.2675000,37.5054509,-0.2241433,3.8263578,37.5054509,24.2643243,146.2698526
0.2700000,0.2700000,0.2700000,34.1352481,-0.2224243,3.2355693,34.1352481,22.0905108,131.8421947
0.2725000,0.2725000,0.2725000,31.1010327,-0.2208176,2.7061726,31.1010327,20.1354609,118.9544522
0.2750000,0.2750000,0.2750000,28.3647110,-0.2192347,2.2306110,28.3647110,18.3783806,107.4358535
0.2775000,0.2775000,0.2775000,25.8944321,-0.2175919,1.8020544,25.8944321,16.8006488,97.1352795
0.2800000,0.2800000,0.2800000,23.6633731,-0.2158222,1.4143713,23.6633731,15.3853386,87.9187200
0.2825000,0.2825000,0.2825000,21.6485880,-0.2138808,1.0621560,21.6485880,14.1169235,79.6670446
0.2850000,0.2850000,0.2850000,19.8300382,-0.2117451,0.7407173,19.8300382,12.9811031,72.2740742
0.2875000,0.2875000,0.2875000,18.1898576,-0.2094106,0.4459664,18.1898576,11.9646970,65.6449428
0.2900000,0.2900000,0.2900000,16.7118451,-0.2068862,0.1742000,16.7118451,11.0555684,59.6947410
0.2925000,0.2925000,0.2925000,15.3811396,-0.2041886,-0.0781562,15.3811396,10.2425560,54.3474255
0.2950000,0.2950000,0.2950000,14.1840250,-0.2013392,-0.3147396,14.1840250,9.5154006,49.5349700
0.2975000,0.2975000,0.2975000,13.1078126,-0.1983610,-0.5392914,13.1078126,8.8646648,45.1967182
0.3000000,0.3000000,0.3000000,12.1407648,-0.1952773,-0.7555162,12.1407648,8.2816470,41.2788871
0.3025000,0.3025000,0.3025000,11.2720336,-0.1921111,-0.9668050,11.2720336,7.7582954,37.7341535
0.3050000,0.3050000,0.3050000,10.4915991,-0.1888851,-1.1759191,10.4915991,7.2871351,34.5212485
0.3075000,0.3075000,0.3075000,9.7902021,-0.1856218,-1.3847349,9.7902021,6.8612178,31.6044972
0.3100000,0.3100000,0.3100000,9.1592709,-0.1823433,-1.5941169,9.1592709,6.4741073,28.9532643
0.3125000,0.3125000,0.3125000,8.5908473,-0.1790717,-1.8039364,8.5908473,6.1199060,26.5413079
0.3150000,0.3150000,0.3150000,8.0775199,-0.1758287,-2.0132162,8.0775199,5.7933161,24.3460819
0.3175000,0.3175000,0.3175000,7.6123775,-0.1726351,-2.2203601,7.6123775,5.4897167,22.3480465
0.3200000,0.3200000,0.3200000,7.1889917,-0.1695102,-2.4234198,7.1889917,5.2052324,20.5300438
0.3225000,0.3225000,0.3225000,6.8014358,-0.1664706,-2.6203603,6.8014358,4.9367633,18.8767798
0.3250000,0.3250000,0.3250000,6.4443341,-0.1635299,-2.8092872,6.4443341,4.6819636,17.3744234
0.3275000,0.3275000,0.3275000,6.1129308,-0.1606968,-2.9886121,6.1129308,4.4391615,16.0103167
0.3300000,0.3300000,0.3300000,5.8031540,-0.1579756,-3.1571408,5.8031540,4.2072318,14.7727732
0.3325000,0.3325000,0.3325000,5.5116521,-0.1553650,-3.3140827,5.5116521,3.9854338,13.6509405
0.3350000,0.3350000,0.3350000,5.2357866,-0.1528584,-3.4589988,5.2357866,3.7732331,12.6347050
0.3375000,0.3375000,0.3375000,4.9735730,-0.1504442,-3.5917191,4.9735730,3.5701275,11.7146196
0.3400000,0.3400000,0.3400000,4.7235752,-0.1481060,-3.7122594,4.7235752,3.3755005,10.8818443
0.3425000,0.3425000,0.3425000,4.4847653,-0.1458247,-3.8207618,4.4847653,3.1885310,10.1280915
0.3450000,0.3450000,0.3450000,4.2563646,-0.1435800,-3.9174659,4.2563646,3.0081771,9.4455753
0.3475000,0.3475000,0.3475000,4.0376859,-0.1413539,-4.0027067,4.0376859,2.8332335,8.8269654
0.3500000,0.3500000,0.3500000,3.8279995,-0.1391338,-4.0769280,3.8279995,2.6624382,8.2653509
0.3525000,0.3525000,0.3525000,3.6264453,-0.1369146,-4.1406921,3.6264453,2.4945916,7.7542211
0.3550000,0.3550000,0.3550000,3.4320067,-0.1347002,-4.1946721,3.4320067,2.3286544,7.2874682
0.3575000,0.3575000,0.3575000,3.2435467,-0.1325025,-4.2396204,3.2435467,2.1638135,6.8594142
0.3600000,0.3600000,0.3600000,3.0598879,-0.1303405,-4.2763189,3.0598879,1.9995191,6.4648593
0.3625000,0.3625000,0.3625000,2.8799088,-0.1282384,-4.3055238,2.8799088,1.8355053,6.0991401
0.3650000,0.3650000,0.3650000,2.7026302,-0.1262235,-4.3279223,2.7026302,1.6718012,5.7581834
0.3675000,0.3675000,0.3675000,2.5272773,-0.1243240,-4.3441103,2.5272773,1.5087302,5.4385393
0.3700000,0.3700000,0.3700000,2.3533169,-0.1225650,-4.3545933,2.3533169,1.3468902,5.1373787
0.3725000,0.3725000,0.3725000,2.1804756,-0.1209644,-4.3598059,2.1804756,1.1871082,4.8524496
0.3750000,0.3750000,0.3750000,2.0087435,-0.1195284,-4.3601370,2.0087435,1.0303719,4.5819902
0.3775000,0.3775000,0.3775000,1.8383655,-0.1182485,-4.3559529,1.8383655,0.8777450,4.3246114
0.3800000,0.3800000,0.3800000,1.6698172,-0.1171011,-4.3476129,1.6698172,0.7302791,4.0791630
0.3825000,0.3825000,0.3825000,1.5037640,-0.1160501,-4.3354764,1.5037640,0.5889337,3.8446051
0.3850000,0.3850000,0.3850000,1.3410057,-0.1150524,-4.3199033,1.3410057,0.4545146,3.6199075
0.3875000,0.3875000,0.3875000,1.1824116,-0.1140629,-4.3012516,1.1824116,0.3276360,3.4039911
0.3900000,0.3900000,0.3900000,1.0288535,-0.1130414,-4.2798719,1.0288535,0.2087082,3.1957181
0.3925000,0.3925000,0.3925000,0.8811443,-0.1119560,-4.2561024,0.8811443,0.0979458,2.9939233
0.3950000,0.3950000,0.3950000,0.7399887,-0.1107853,-4.2302643,0.7399887,-0.0046084,2.7974724
0.3975000,0.3975000,0.3975000,0.6059493,-0.1095187,-4.2026580,0.6059493,-0.0990516,2.6053298
0.4000000,0.4000000,0.4000000,0.4794304,-0.1081538,-4.1735614,0.4794304,-0.1855879,2.4166210
0.4025000,0.4025000,0.4025000,0.3606778,-0.1066941,-4.1432296,0.3606778,-0.2644981,2.2306818
0.4050000,0.4050000,0.4050000,0.2497903,-0.1051460,-4.1118955,0.2497903,-0.3361146,2.0470898
0.4075000,0.4075000,0.4075000,0.1467403,-0.1035161,-4.0797704,0.1467403,-0.4008025,1.8656777
0.4100000,0.4100000,0.4100000,0.0513971,-0.1018100,-4.0470404,0.0513971,-0.4589450,1.6865258
0.4125000,0.4125000,0.4125000,-0.0364494,-0.1000320,-4.0138612,-0.0364494,-0.5109326,1.5099374
0.4150000,0.4150000,0.4150000,-0.1170669,-0.0981849,-3.9803490,-0.1170669,-0.5571553,1.3363955
0.4175000,0.4175000,0.4175000,-0.1907636,-0.0962712,-3.9465745,-0.1907636,-0.5979968,1.1665096
0.4200000,0.4200000,0.4200000,-0.2578736,-0.0942936,-3.9125590,-0.2578736,-0.6338303,1.0009568
0.4225000,0.4225000,0.4225000,-0.3187469,-0.0922556,-3.8782773,-0.3187469,-0.6650163,0.8404255
0.4250000,0.4250000,0.4250000,-0.3737415,-0.0901614,-3.8436663,-0.3737415,-0.6919016,0.6855668
0.4275000,0.4275000,0.4275000,-0.4232168,-0.0880159,-3.8086365,-0.4232168,-0.7148203,0.5369589
0.4300000,0.4300000,0.4300000,-0.4675295,-0.0858244,-3.7730870,-0.4675295,-0.7340945,0.3950823
0.4325000,0.4325000,0.4325000,-0.5070294,-0.0835923,-3.7369181,-0.5070294,-0.7500350,0.2603088
0.4350000,0.4350000,0.4350000,-0.5420577,-0.0813253,-3.7000432,-0.5420577,-0.7629403,0.1328983
0.4375000,0.4375000,0.4375000,-0.5729447,-0.0790290,-3.6623965,-0.5729447,-0.7730948,0.0130042
0.4400000,0.4400000,0.4400000,-0.6000096,-0.0767096,-3.6239379,-0.6000096,-0.7807656,-0.0993174
0.4425000,0.4425000,0.4425000,-0.6235593,-0.0743732,-3.5846543,-0.6235593,-0.7862008,-0.2040953
0.4450000,0.4450000,0.4450000,-0.6438867,-0.0720271,-3.5445588,-0.6438867,-0.7896297,-0.3014292
0.4475000,0.4475000,0.4475000,-0.6612686,-0.0696789,-3.5036879,-0.6612686,-0.7912660,-0.3914772
0.4500000,0.4500000,0.4500000,-0.6759632,-0.0673371,-3.4620977,-0.6759632,-0.7913132,-0.4744436
0.4525000,0.4525000,0.4525000,-0.6882085,-0.0650109,-3.4198598,-0.6882085,-0.7899701,-0.5505687
0.4550000,0.4550000,0.4550000,-0.6982239,-0.0627101,-3.3770573,-0.6982239,-0.7874343,-0.6201216
0.4575000,0.4575000,0.4575000,-0.7062130,-0.0604440,-3.3337802,-0.7062130,-0.7839038,-0.6833936
0.4600000,0.4600000,0.4600000,-0.7123695,-0.0582215,-3.2901226,-0.7123695,-0.7795750,-0.7406937
0.4625000,0.4625000,0.4625000,-0.7168824,-0.0560502,-3.2461795,-0.7168824,-0.7746399,-0.7923436
0.4650000,0.4650000,0.4650000,-0.7199402,-0.0539361,-3.2020445,-0.7199402,-0.7692815,-0.8386739
0.4675000,0.4675000,0.4675000,-0.7217325,-0.0518835,-3.1578077,-0.7217325,-0.7636698,-0.8800192
0.4700000,0.4700000,0.4700000,-0.7224493,-0.0498945,-3.1135549,-0.7224493,-0.7579571,-0.9167140
0.4725000,0.4725000,0.4725000,-0.7222785,-0.0479697,-3.0693663,-0.7222785,-0.7522715,-0.9490881
0.4750000,0.4750000,0.4750000,-0.7214032,-0.0461077,-3.0253158,-0.7214032,-0.7467110,-0.9774626
0.4775000,0.4775000,0.4775000,-0.7199970,-0.0443060,-2.9814711,-0.7199970,-0.7413371,-1.0021456
0.4800000,0.4800000,0.4800000,-0.7182200,-0.0425611,-2.9378935,-0.7182200,-0.7361710,-1.0234289
0.4825000,0.4825000,0.4825000,-0.7162123,-0.0408691,-2.8946377,-0.7162123,-0.7311932,-1.0415847
0.4850000,0.4850000,0.4850000,-0.7140876,-0.0392264,-2.8517524,-0.7140876,-0.7263473,-1.0568648
0.4875000,0.4875000,0.4875000,-0.7119261,-0.0376306,-2.8092803,-0.7119261,-0.7215482,-1.0695015
0.4900000,0.4900000,0.4900000,-0.7097704,-0.0360806,-2.7672587,-0.7097704,-0.7166920,-1.0797099
0.4925000,0.4925000,0.4925000,-0.7076230,-0.0345772,-2.7257197,-0.7076230,-0.7116679,-1.0876927
0.4950000,0.4950000,0.4950000,-0.7054494,-0.0331226,-2.6846907,-0.7054494,-0.7063678,-1.0936443
0.4975000,0.4975000,0.4975000,-0.7031842,-0.0317204,-2.6441947,-0.7031842,-0.7006956,-1.0977540
0.5000000,0.5000000,0.5000000,-0.7007402,-0.0303748,-2.6042508,-0.7007402,-0.6945729,-1.1002094
0.5025000,0.5025000,0.5025000,-0.6980189,-0.0290902,-2.5648745,-0.6980189,-0.6879420,-1.1011960
0.5050000,0.5050000,0.5050000,-0.6949206,-0.0278707,-2.5260781,-0.6949206,-0.6807672,-1.1008984
0.5075000,0.5075000,0.5075000,-0.6913534,-0.0267192,-2.4878710,-0.6913534,-0.6730337,-1.0994979
0.5100000,0.5100000,0.5100000,-0.6872395,-0.0256380,-2.4502601,-0.6872395,-0.6647456,-1.0971715
0.5125000,0.5125000,0.5125000,-0.6825196,-0.0246277,-2.4132498,-0.6825196,-0.6559227,-1.0940882
0.5150000,0.5150000,0.5150000,-0.6771548,-0.0236880,-2.3768428,-0.6771548,-0.6465975,-1.0904045
0.5175000,0.5175000,0.5175000,-0.6711264,-0.0228174,-2.3410398,-0.6711264,-0.6368120,-1.0862591
0.5200000,0.5200000,0.5200000,-0.6644347,-0.0220135,-2.3058401,-0.6644347,-0.6266145,-1.0817662
0.5225000,0.5225000,0.5225000,-0.6570964,-0.0212731,-2.2712413,-0.6570964,-0.6160573,-1.0770108
0.5250000,0.5250000,0.5250000,-0.6491420,-0.0205926,-2.2372403,-0.6491420,-0.6051945,-1.0720443
0.5275000,0.5275000,0.5275000,-0.6406127,-0.0199678,-2.2038326,-0.6406127,-0.5940798,-1.0668844
0.5300000,0.5300000,0.5300000,-0.6315572,-0.0193946,-2.1710128,-0.6315572,-0.5827658,-1.0615169
0.5325000,0.5325000,0.5325000,-0.6220298,-0.0188688,-2.1387751,-0.6220298,-0.5713027,-1.0559011
0.5350000,0.5350000,0.5350000,-0.6120870,-0.0183861,-2.1071126,-0.6120870,-0.5597373,-1.0499763
0.5375000,0.5375000,0.5375000,-0.6017868,-0.0179424,-2.0760182,-0.6017868,-0.5481133,-1.0436707
0.5400000,0.5400000,0.5400000,-0.5911862,-0.0175339,-2.0454841,-0.5911862,-0.5364704,-1.0369086
0.5425000,0.5425000,0.5425000,-0.5803406,-0.0171571,-2.0155024,-0.5803406,-0.5248445,-1.0296180
0.5450000,0.5450000,0.5450000,-0.5693025,-0.0168085,-1.9860646,-0.5693025,-0.5132677,-1.0217362
0.5475000,0.5475000,0.5475000,-0.5581213,-0.0164851,-1.9571620,-0.5581213,-0.5017686,-1.0132138
0.5500000,0.5500000,0.5500000,-0.5468429,-0.0161840,-1.9287860,-0.5468429,-0.4903720,-1.0040169
0.5525000,0.5525000,0.5525000,-0.5355091,-0.0159028,-1.9009275,-0.5355091,-0.4790997,-0.9941284
0.5550000,0.5550000,0.5550000,-0.5241579,-0.0156393,-1.8735774,-0.5241579,-0.4679703,-0.9835470
0.5575000,0.5575000,0.5575000,-0.5128236,-0.0153912,-1.8467267,-0.5128236,-0.4569998,-0.9722864
0.5600000,0.5600000,0.5600000,-0.5015366,-0.0151570,-1.8203663,-0.5015366,-0.4462013,-0.9603731
0.5625000,0.5625000,0.5625000,-0.4903239,-0.0149348,-1.7944869,-0.4903239,-0.4355861,-0.9478442
0.5650000,0.5650000,0.5650000,-0.4792091,-0.0147234,-1.7690795,-0.4792091,-0.4251631,-0.9347453
0.5675000,0.5675000,0.5675000,-0.4682127,-0.0145215,-1.7441349,-0.4682127,-0.4149395,-0.9211282
0.5700000,0.5700000,0.5700000,-0.4573524,-0.0143280,-1.7196442,-0.4573524,-0.4049207,-0.9070485
0.5725000,0.5725000,0.5725000,-0.4466433,-0.0141419,-1.6955984,-0.4466433,-0.3951109,-0.8925643
0.5750000,0.5750000,0.5750000,-0.4360980,-0.0139624,-1.6719886,-0.4360980,-0.3855130,-0.8777344
0.5775000,0.5775000,0.5775000,-0.4257273,-0.0137887,-1.6488062,-0.4257273,-0.3761286,-0.8626169
0.5800000,0.5800000,0.5800000,-0.4155397,-0.0136203,-1.6260425,-0.4155397,-0.3669584,-0.8472683
0.5825000,0.5825000,0.5825000,-0.4055422,-0.0134565,-1.6036889,-0.4055422,-0.3580023,-0.8317427
0.5850000,0.5850000,0.5850000,-0.3957402,-0.0132969,-1.5817372,-0.3957402,-0.3492596,-0.8160913
0.5875000,0.5875000,0.5875000,-0.3861378,-0.0131411,-1.5601790,-0.3861378,-0.3407288,-0.8003620
0.5900000,0.5900000,0.5900000,-0.3767380,-0.0129887,-1.5390063,-0.3767380,-0.3324078,-0.7845990
0.5925000,0.5925000,0.5925000,-0.3675424,-0.0128394,-1.5182111,-0.3675424,-0.3242943,-0.7688430
0.5950000,0.5950000,0.5950000,-0.3585521,-0.0126929,-1.4977856,-0.3585521,-0.3163854,-0.7531309
0.5975000,0.5975000,0.5975000,-0.3497672,-0.0125490,-1.4777220,-0.3497672,-0.3086779,-0.7374960
0.6000000,0.6000000,0.6000000,-0.3411870,-0.0124075,-1.4580130,-0.3411870,-0.3011686,-0.7219681
0.6025000,0.6025000,0.6025000,-0.3328105,-0.0122683,-1.4386510,-0.3328105,-0.2938537,-0.7065737
0.6050000,0.6050000,0.6050000,-0.3246359,-0.0121312,-1.4196288,-0.3246359,-0.2867295,-0.6913361
0.6075000,0.6075000,0.6075000,-0.3166611,-0.0119960,-1.4009395,-0.3166611,-0.2797922,-0.6762757
0.6100000,0.6100000,0.6100000,-0.3088836,-0.0118627,-1.3825760,-0.3088836,-0.2730376,-0.6614102
0.6125000,0.6125000,0.6125000,-0.3013006,-0.0117311,-1.3645315,-0.3013006,-0.2664617,-0.6467547
0.6150000,0.6150000,0.6150000,-0.2939091,-0.0116013,-1.3467995,-0.2939091,-0.2600604,-0.6323220
0.6175000,0.6175000,0.6175000,-0.2867057,-0.0114730,-1.3293733,-0.2867057,-0.2538295,-0.6181227
0.6200000,0.6200000,0.6200000,-0.2796869,-0.0113463,-1.3122467,-0.2796869,-0.2477649,-0.6041659
0.6225000,0.6225000,0.6225000,-0.2728492,-0.0112212,-1.2954134,-0.2728492,-0.2418624,-0.5904584
0.6250000,0.6250000,0.6250000,-0.2661889,-0.0110975,-1.2788674,-0.2661889,-0.2361180,-0.5770060
0.6275000,0.6275000,0.6275000,-0.2597022,-0.0109753,-1.2626026,-0.2597022,-0.2305275,-0.5638127
0.6300000,0.6300000,0.6300000,-0.2533852,-0.0108545,-1.2466133,-0.2533852,-0.2250869,-0.5508814
0.6325000,0.6325000,0.6325000,-0.2472341,-0.0107350,-1.2308938,-0.2472341,-0.2197923,-0.5382140
0.6350000,0.6350000,0.6350000,-0.2412450,-0.0106169,-1.2154386,-0.2412450,-0.2146396,-0.5258114
0.6375000,0.6375000,0.6375000,-0.2354140,-0.0105002,-1.2002421,-0.2354140,-0.2096251,-0.5136736
0.6400000,0.6400000,0.6400000,-0.2297372,-0.0103848,-1.1852992,-0.2297372,-0.2047449,-0.5017997
0.6425000,0.6425000,0.6425000,-0.2242108,-0.0102707,-1.1706046,-0.2242108,-0.1999954,-0.4901885
0.6450000,0.6450000,0.6450000,-0.2188309,-0.0101579,-1.1561532,-0.2188309,-0.1953729,-0.4788378
0.6475000,0.6475000,0.6475000,-0.2135938,-0.0100464,-1.1419401,-0.2135938,-0.1908739,-0.4677453
0.6500000,0.6500000,0.6500000,-0.2084958,-0.0099362,-1.1279605,-0.2084958,-0.1864949,-0.4569081
0.6525000,0.6525000,0.6525000,-0.2035331,-0.0098272,-1.1142097,-0.2035331,-0.1822325,-0.4463228
0.6550000,0.6550000,0.6550000,-0.1987023,-0.0097195,-1.1006830,-0.1987023,-0.1780834,-0.4359860
0.6575000,0.6575000,0.6575000,-0.1939996,-0.0096131,-1.0873759,-0.1939996,-0.1740444,-0.4258937
0.6600000,0.6600000,0.6600000,-0.1894218,-0.0095078,-1.0742840,-0.1894218,-0.1701124,-0.4160420
0.6625000,0.6625000,0.6625000,-0.1849652,-0.0094038,-1.0614030,-0.1849652,-0.1662842,-0.4064267
0.6650000,0.6650000,0.6650000,-0.1806268,-0.0093011,-1.0487288,-0.1806268,-0.1625569,-0.3970433
0.6675000,0.6675000,0.6675000,-0.1764031,-0.0091995,-1.0362571,-0.1764031,-0.1589277,-0.3878874
0.6700000,0.6700000,0.6700000,-0.1722910,-0.0090991,-1.0239840,-0.1722910,-0.1553936,-0.3789546
0.6725000,0.6725000,0.6725000,-0.1682874,-0.0090000,-1.0119056,-0.1682874,-0.1519520,-0.3702401
0.6750000,0.6750000,0.6750000,-0.1643893,-0.0089020,-1.0000180,-0.1643893,-0.1486003,-0.3617393
0.6775000,0.6775000,0.6775000,-0.1605937,-0.0088052,-0.9883175,-0.1605937,-0.1453357,-0.3534476
0.6800000,0.6800000,0.6800000,-0.1568977,-0.0087095,-0.9768004,-0.1568977,-0.1421559,-0.3453604
0.6825000,0.6825000,0.6825000,-0.1532986,-0.0086151,-0.9654631,-0.1532986,-0.1390584,-0.3374729
0.6850000,0.6850000,0.6850000,-0.1497936,-0.0085217,-0.9543022,-0.1497936,-0.1360408,-0.3297806
0.6875000,0.6875000,0.6875000,-0.1463801,-0.0084295,-0.9433143,-0.1463801,-0.1331008,-0.3222788
0.6900000,0.6900000,0.6900000,-0.1430554,-0.0083385,-0.9324959,-0.1430554,-0.1302362,-0.3149631
0.6925000,0.6925000,0.6925000,-0.1398171,-0.0082485,-0.9218439,-0.1398171,-0.1274448,-0.3078290
0.6950000,0.6950000,0.6950000,-0.1366627,-0.0081597,-0.9113550,-0.1366627,-0.1247246,-0.3008719
0.6975000,0.6975000,0.6975000,-0.1335899,-0.0080720,-0.9010262,-0.1335899,-0.1220735,-0.2940877
0.7000000,0.7000000,0.7000000,-0.1305963,-0.0079854,-0.8908544,-0.1305963,-0.1194895,-0.2874718
0.7025000,0.7025000,0.7025000,-0.1276797,-0.0078998,-0.8808365,-0.1276797,-0.1169708,-0.2810203
0.7050000,0.7050000,0.7050000,-0.1248380,-0.0078153,-0.8709698,-0.1248380,-0.1145154,-0.2747288
0.7075000,0.7075000,0.7075000,-0.1220689,-0.0077319,-0.8612513,-0.1220689,-0.1121216,-0.2685933
0.7100000,0.7100000,0.7100000,-0.1193706,-0.0076495,-0.8516783,-0.1193706,-0.1097876,-0.2626099
0.7125000,0.7125000,0.7125000,-0.1167409,-0.0075682,-0.8422480,-0.1167409,-0.1075118,-0.2567747
0.7150000,0.7150000,0.7150000,-0.1141779,-0.0074878,-0.8329578,-0.1141779,-0.1052924,-0.2510837
0.7175000,0.7175000,0.7175000,-0.1116798,-0.0074085,-0.8238051,-0.1116798,-0.1031280,-0.2455334
0.7200000,0.7200000,0.7200000,-0.1092448,-0.0073302,-0.8147874,-0.1092448,-0.1010169,-0.2401200
0.7225000,0.7225000,0.7225000,-0.1068710,-0.0072529,-0.8059021,-0.1068710,-0.0989577,-0.2348400
0.7250000,0.7250000,0.7250000,-0.1045568,-0.0071766,-0.7971468,-0.1045568,-0.0969489,-0.2296899
0.7275000,0.7275000,0.7275000,-0.1023005,-0.0071012,-0.7885192,-0.1023005,-0.0949891,-0.2246663
0.7300000,0.7300000,0.7300000,-0.1001005,-0.0070268,-0.7800168,-0.1001005,-0.0930770,-0.2197659
0.7325000,0.7325000,0.7325000,-0.0979552,-0.0069534,-0.7716375,-0.0979552,-0.0912112,-0.2149855
0.7350000,0.7350000,0.7350000,-0.0958631,-0.0068809,-0.7633790,-0.0958631,-0.0893905,-0.2103218
0.7375000,0.7375000,0.7375000,-0.0938227,-0.0068093,-0.7552391,-0.0938227,-0.0876135,-0.2057719
0.7400000,0.7400000,0.7400000,-0.0918326,-0.0067386,-0.7472157,-0.0918326,-0.0858791,-0.2013327
0.7425000,0.7425000,0.7425000,-0.0898914,-0.0066688,-0.7393067,-0.0898914,-0.0841862,-0.1970014
0.7450000,0.7450000,0.7450000,-0.0879977,-0.0065999,-0.7315101,-0.0879977,-0.0825336,-0.1927750
0.7475000,0.7475000,0.7475000,-0.0861503,-0.0065319,-0.7238238,-0.0861503,-0.0809201,-0.1886509
0.7500000,0.7500000,0.7500000,-0.0843478,-0.0064648,-0.7162459,-0.0843478,-0.0793448,-0.1846263
0.7525000,0.7525000,0.7525000,-0.0825891,-0.0063985,-0.7087744,-0.0825891,-0.0778066,-0.1806986
0.7550000,0.7550000,0.7550000,-0.0808730,-0.0063331,-0.7014076,-0.0808730,-0.0763045,-0.1768652
0.7575000,0.7575000,0.7575000,-0.0791982,-0.0062685,-0.6941435,-0.0791982,-0.0748375,-0.1731238
0.7600000,0.7600000,0.7600000,-0.0775637,-0.0062047,-0.6869804,-0.0775637,-0.0734046,-0.1694718
0.7625000,0.7625000,0.7625000,-0.0759684,-0.0061417,-0.6799166,-0.0759684,-0.0720051,-0.1659069
0.7650000,0.7650000,0.7650000,-0.0744111,-0.0060795,-0.6729502,-0.0744111,-0.0706379,-0.1624269
0.7675000,0.7675000,0.7675000,-0.0728910,-0.0060182,-0.6660796,-0.0728910,-0.0693022,-0.1590294
0.7700000,0.7700000,0.7700000,-0.0714070,-0.0059576,-0.6593031,-0.0714070,-0.0679971,-0.1557124
0.7725000,0.7725000,0.7725000,-0.0699580,-0.0058977,-0.6526192,-0.0699580,-0.0667220,-0.1524738
0.7750000,0.7750000,0.7750000,-0.0685433,-0.0058387,-0.6460262,-0.0685433,-0.0654758,-0.1493115
0.7775000,0.7775000,0.7775000,-0.0671618,-0.0057804,-0.6395226,-0.0671618,-0.0642580,-0.1462235
0.7800000,0.7800000,0.7800000,-0.0658127,-0.0057228,-0.6331069,-0.0658127,-0.0630678,-0.1432078
0.7825000,0.7825000,0.7825000,-0.0644952,-0.0056659,-0.6267775,-0.0644952,-0.0619044,-0.1402627
0.7850000,0.7850000,0.7850000,-0.0632083,-0.0056098,-0.6205331,-0.0632083,-0.0607672,-0.1373862
0.7875000,0.7875000,0.7875000,-0.0619513,-0.0055544,-0.6143722,-0.0619513,-0.0596554,-0.1345766
0.7900000,0.7900000,0.7900000,-0.0607234,-0.0054996,-0.6082933,-0.0607234,-0.0585684,-0.1318322
0.7925000,0.7925000,0.7925000,-0.0595239,-0.0054456,-0.6022952,-0.0595239,-0.0575055,-0.1291513
0.7950000,0.7950000,0.7950000,-0.0583519,-0.0053923,-0.5963764,-0.0583519,-0.0564662,-0.1265323
0.7975000,0.7975000,0.7975000,-0.0572068,-0.0053396,-0.5905357,-0.0572068,-0.0554499,-0.1239735
0.8000000,0.8000000,0.8000000,-0.0560879,-0.0052875,-0.5847717,-0.0560879,-0.0544559,-0.1214734
0.8025000,0.8025000,0.8025000,-0.0549944,-0.0052362,-0.5790833,-0.0549944,-0.0534837,-0.1190306
0.8050000,0.8050000,0.8050000,-0.0539258,-0.0051854,-0.5734691,-0.0539258,-0.0525326,-0.1166435
0.8075000,0.8075000,0.8075000,-0.0528814,-0.0051353,-0.5679279,-0.0528814,-0.0516023,-0.1143107
0.8100000,0.8100000,0.8100000,-0.0518606,-0.0050859,-0.5624586,-0.0518606,-0.0506922,-0.1120309
0.8125000,0.8125000,0.8125000,-0.0508627,-0.0050370,-0.5570599,-0.0508627,-0.0498017,-0.1098027
0.8150000,0.8150000,0.8150000,-0.0498872,-0.0049887,-0.5517308,-0.0498872,-0.0489304,-0.1076248
0.8175000,0.8175000,0.8175000,-0.0489335,-0.0049411,-0.5464700,-0.0489335,-0.0480777,-0.1054959
0.8200000,0.8200000,0.8200000,-0.0480011,-0.0048940,-0.5412766,-0.0480011,-0.0472433,-0.1034149
0.8225000,0.8225000,0.8225000,-0.0470893,-0.0048475,-0.5361494,-0.0470893,-0.0464267,-0.1013804
0.8250000,0.8250000,0.8250000,-0.0461978,-0.0048016,-0.5310873,-0.0461978,-0.0456273,-0.0993914
0.8275000,0.8275000,0.8275000,-0.0453260,-0.0047563,-0.5260894,-0.0453260,-0.0448449,-0.0974467
0.8300000,0.8300000,0.8300000,-0.0444733,-0.0047115,-0.5211545,-0.0444733,-0.0440790,-0.0955452
0.8325000,0.8325000,0.8325000,-0.0436394,-0.0046672,-0.5162818,-0.0436394,-0.0433291,-0.0936857
0.8350000,0.8350000,0.8350000,-0.0428237,-0.0046235,-0.5114701,-0.0428237,-0.0425949,-0.0918674
0.8375000,0.8375000,0.8375000,-0.0420257,-0.0045803,-0.5067187,-0.0420257,-0.0418760,-0.0900891
0.8400000,0.8400000,0.8400000,-0.0412451,-0.0045377,-0.5020264,-0.0412451,-0.0411721,-0.0883499
0.8425000,0.8425000,0.8425000,-0.0404815,-0.0044956,-0.4973924,-0.0404815,-0.0404827,-0.0866487
0.8450000,0.8450000,0.8450000,-0.0397343,-0.0044539,-0.4928158,-0.0397343,-0.0398076,-0.0849847
0.8475000,0.8475000,0.8475000,-0.0390032,-0.0044128,-0.4882957,-0.0390032,-0.0391463,-0.0833570
0.8500000,0.8500000,0.8500000,-0.0382878,-0.0043722,-0.4838311,-0.0382878,-0.0384986,-0.0817647
0.8525000,0.8525000,0.8525000,-0.0375878,-0.0043321,-0.4794214,-0.0375878,-0.0378640,-0.0802068
0.8550000,0.8550000,0.8550000,-0.0369026,-0.0042924,-0.4750655,-0.0369026,-0.0372424,-0.0786826
0.8575000,0.8575000,0.8575000,-0.0362321,-0.0042532,-0.4707627,-0.0362321,-0.0366334,-0.0771912
0.8600000,0.8600000,0.8600000,-0.0355758,-0.0042145,-0.4665122,-0.0355758,-0.0360367,-0.0757319
0.8625000,0.8625000,0.8625000,-0.0349333,-0.0041763,-0.4623131,-0.0349333,-0.0354520,-0.0743039
0.8650000,0.8650000,0.8650000,-0.0343044,-0.0041385,-0.4581647,-0.0343044,-0.0348790,-0.0729064
0.8675000,0.8675000,0.8675000,-0.0336887,-0.0041012,-0.4540663,-0.0336887,-0.0343175,-0.0715387
0.8700000,0.8700000,0.8700000,-0.0330859,-0.0040643,-0.4500170,-0.0330859,-0.0337672,-0.0702000
0.8725000,0.8725000,0.8725000,-0.0324957,-0.0040278,-0.4460161,-0.0324957,-0.0332278,-0.0688897
0.8750000,0.8750000,0.8750000,-0.0319178,-0.0039918,-0.4420629,-0.0319178,-0.0326990,-0.0676072
0.8775000,0.8775000,0.8775000,-0.0313519,-0.0039562,-0.4381567,-0.0313519,-0.0321807,-0.0663516
0.8800000,0.8800000,0.8800000,-0.0307977,-0.0039210,-0.4342968,-0.0307977,-0.0316726,-0.0651225
0.8825000,0.8825000,0.8825000,-0.0302549,-0.0038862,-0.4304824,-0.0302549,-0.0311744,-0.0639191
0.8850000,0.8850000,0.8850000,-0.0297233,-0.0038518,-0.4267130,-0.0297233,-0.0306859,-0.0627410
0.8875000,0.8875000,0.8875000,-0.0292026,-0.0038179,-0.4229878,-0.0292026,-0.0302070,-0.0615873
0.8900000,0.8900000,0.8900000,-0.0286926,-0.0037843,-0.4193063,-0.0286926,-0.0297373,-0.0604577
0.8925000,0.8925000,0.8925000,-0.0281930,-0.0037511,-0.4156677,-0.0281930,-0.0292767,-0.0593516
0.8950000,0.8950000,0.8950000,-0.0277035,-0.0037183,-0.4120714,-0.0277035,-0.0288249,-0.0582683
0.8975000,0.8975000,0.8975000,-0.0272239,-0.0036859,-0.4085168,-0.0272239,-0.0283818,-0.0572073
0.9000000,0.9000000,0.9000000,-0.0267541,-0.0036538,-0.4050033,-0.0267541,-0.0279472,-0.0561682
0.9025000,0.9025000,0.9025000,-0.0262937,-0.0036221,-0.4015303,-0.0262937,-0.0275209,-0.0551505
0.9050000,0.9050000,0.9050000,-0.0258426,-0.0035908,-0.3980973,-0.0258426,-0.0271027,-0.0541536
0.9075000,0.9075000,0.9075000,-0.0254005,-0.0035598,-0.3947036,-0.0254005,-0.0266924,-0.0531770
0.9100000,0.9100000,0.9100000,-0.0249672,-0.0035292,-0.3913486,-0.0249672,-0.0262898,-0.0522203
0.9125000,0.9125000,0.9125000,-0.0245426,-0.0034990,-0.3880319,-0.0245426,-0.0258948,-0.0512831
0.9150000,0.9150000,0.9150000,-0.0241264,-0.0034691,-0.3847529,-0.0241264,-0.0255071,-0.0503648
0.9175000,0.9175000,0.9175000,-0.0237185,-0.0034395,-0.3815110,-0.0237185,-0.0251268,-0.0494651
0.9200000,0.9200000,0.9200000,-0.0233186,-0.0034102,-0.3783057,-0.0233186,-0.0247535,-0.0485835
0.9225000,0.9225000,0.9225000,-0.0229266,-0.0033813,-0.3751365,-0.0229266,-0.0243871,-0.0477197
0.9250000,0.9250000,0.9250000,-0.0225423,-0.0033527,-0.3720028,-0.0225423,-0.0240275,-0.0468731
0.9275000,0.9275000,0.9275000,-0.0221655,-0.0033245,-0.3689043,-0.0221655,-0.0236745,-0.0460435
0.9300000,0.9300000,0.9300000,-0.0217961,-0.0032965,-0.3658403,-0.0217961,-0.0233280,-0.0452305
0.9325000,0.9325000,0.9325000,-0.0214338,-0.0032689,-0.3628104,-0.0214338,-0.0229879,-0.0444336
0.9350000,0.9350000,0.9350000,-0.0210786,-0.0032415,-0.3598142,-0.0210786,-0.0226540,-0.0436525
0.9375000,0.9375000,0.9375000,-0.0207303,-0.0032145,-0.3568511,-0.0207303,-0.0223261,-0.0428869
0.9400000,0.9400000,0.9400000,-0.0203887,-0.0031877,-0.3539207,-0.0203887,-0.0220042,-0.0421364
0.9425000,0.9425000,0.9425000,-0.0200537,-0.0031613,-0.3510226,-0.0200537,-0.0216880,-0.0414007
0.9450000,0.9450000,0.9450000,-0.0197251,-0.0031352,-0.3481562,-0.0197251,-0.0213776,-0.0406795
0.9475000,0.9475000,0.9475000,-0.0194028,-0.0031093,-0.3453212,-0.0194028,-0.0210728,-0.0399723
0.9500000,0.9500000,0.9500000,-0.0190866,-0.0030837,-0.3425171,-0.0190866,-0.0207734,-0.0392790
0.9525000,0.9525000,0.9525000,-0.0187765,-0.0030584,-0.3397436,-0.0187765,-0.0204793,-0.0385992
0.9550000,0.9550000,0.9550000,-0.0184722,-0.0030334,-0.3370001,-0.0184722,-0.0201905,-0.0379327
0.9575000,0.9575000,0.9575000,-0.0181738,-0.0030086,-0.3342863,-0.0181738,-0.0199068,-0.0372790
0.9600000,0.9600000,0.9600000,-0.0178809,-0.0029842,-0.3316017,-0.0178809,-0.0196280,-0.0366380
0.9625000,0.9625000,0.9625000,-0.0175936,-0.0029599,-0.3289461,-0.0175936,-0.0193542,-0.0360094
0.9650000,0.9650000,0.9650000,-0.0173116,-0.0029360,-0.3263189,-0.0173116,-0.0190852,-0.0353929
0.9675000,0.9675000,0.9675000,-0.0170350,-0.0029123,-0.3237199,-0.0170350,-0.0188209,-0.0347882
0.9700000,0.9700000,0.9700000,-0.0167635,-0.0028888,-0.3211485,-0.0167635,-0.0185613,-0.0341951
0.9725000,0.9725000,0.9725000,-0.0164970,-0.0028656,-0.3186046,-0.0164970,-0.0183061,-0.0336134
0.9750000,0.9750000,0.9750000,-0.0162355,-0.0028427,-0.3160876,-0.0162355,-0.0180553,-0.0330427
0.9775000,0.9775000,0.9775000,-0.0159789,-0.0028200,-0.3135972,-0.0159789,-0.0178089,-0.0324829
0.9800000,0.9800000,0.9800000,-0.0157270,-0.0027975,-0.3111331,-0.0157270,-0.0175667,-0.0319337
0.9825000,0.9825000,0.9825000,-0.0154797,-0.0027753,-0.3086950,-0.0154797,-0.0173287,-0.0313949
0.9850000,0.9850000,0.9850000,-0.0152370,-0.0027533,-0.3062824,-0.0152370,-0.0170947,-0.0308663
0.9875000,0.9875000,0.9875000,-0.0149987,-0.0027316,-0.3038951,-0.0149987,-0.0168647,-0.0303476
0.9900000,0.9900000,0.9900000,-0.0147648,-0.0027100,-0.3015327,-0.0147648,-0.0166386,-0.0298387
0.9925000,0.9925000,0.9925000,-0.0145351,-0.0026887,-0.2991949,-0.0145351,-0.0164164,-0.0293393
0.9950000,0.9950000,0.9950000,-0.0143096,-0.0026677,-0.2968814,-0.0143096,-0.0161979,-0.0288493
0.9975000,0.9975000,0.9975000,-0.0140882,-0.0026468,-0.2945918,-0.0140882,-0.0159831,-0.0283684
1.0000000,1.0000000,1.0000000,-0.0138708,-0.0026262,-0.2923259,-0.0138708,-0.0157719,-0.0278964
1.0025000,1.0025000,1.0025000,-0.0136573,-0.0026057,-0.2900833,-0.0136573,-0.0155642,-0.0274332
1.0050000,1.0050000,1.0050000,-0.0134477,-0.0025855,-0.2878638,-0.0134477,-0.0153600,-0.0269786
1.0075000,1.0075000,1.0075000,-0.0132418,-0.0025655,-0.2856669,-0.0132418,-0.0151592,-0.0265324
1.0100000,1.0100000,1.0100000,-0.0130396,-0.0025457,-0.2834926,-0.0130396,-0.0149617,-0.0260944
1.0125000,1.0125000,1.0125000,-0.0128410,-0.0025261,-0.2813404,-0.0128410,-0.0147674,-0.0256645
1.0150000,1.0150000,1.0150000,-0.0126460,-0.0025067,-0.2792100,-0.0126460,-0.0145764,-0.0252425
1.0175000,1.0175000,1.0175000,-0.0124544,-0.0024875,-0.2771013,-0.0124544,-0.0143885,-0.0248282
1.0200000,1.0200000,1.0200000,-0.0122662,-0.0024685,-0.2750138,-0.0122662,-0.0142037,-0.0244214
1.0225000,1.0225000,1.0225000,-0.0120813,-0.0024497,-0.2729475,-0.0120813,-0.0140219,-0.0240221
1.0250000,1.0250000,1.0250000,-0.0118997,-0.0024311,-0.2709019,-0.0118997,-0.0138430,-0.0236300
1.0275000,1.0275000,1.0275000,-0.0117212,-0.0024127,-0.2688768,-0.0117212,-0.0136670,-0.0232451
1.0300000,1.0300000,1.0300000,-0.0115459,-0.0023945,-0.2668720,-0.0115459,-0.0134939,-0.0228671
1.0325000,1.0325000,1.0325000,-0.0113737,-0.0023764,-0.2648872,-0.0113737,-0.0133236,-0.0224959
1.0350000,1.0350000,1.0350000,-0.0112044,-0.0023585,-0.2629222,-0.0112044,-0.0131560,-0.0221315
1.0375000,1.0375000,1.0375000,-0.0110381,-0.0023408,-0.2609767,-0.0110381,-0.0129911,-0.0217736
1.0400000,1.0400000,1.0400000,-0.0108747,-0.0023233,-0.2590504,-0.0108747,-0.0128288,-0.0214221
1.0425000,1.0425000,1.0425000,-0.0107141,-0.0023060,-0.2571432,-0.0107141,-0.0126691,-0.0210769
1.0450000,1.0450000,1.0450000,-0.0105563,-0.0022888,-0.2552548,-0.0105563,-0.0125120,-0.0207378
1.0475000,1.0475000,1.0475000,-0.0104012,-0.0022718,-0.2533849,-0.0104012,-0.0123573,-0.0204048
1.0500000,1.0500000,1.0500000,-0.0102488,-0.0022550,-0.2515334,-0.0102488,-0.0122051,-0.0200777
1.0525000,1.0525000,1.0525000,-0.0100989,-0.0022383,-0.2497000,-0.0100989,-0.0120552,-0.0197565
1.0550000,1.0550000,1.0550000,-0.0099517,-0.0022218,-0.2478844,-0.0099517,-0.0119077,-0.0194409
1.0575000,1.0575000,1.0575000,-0.0098069,-0.0022055,-0.2460866,-0.0098069,-0.0117626,-0.0191309
1.0600000,1.0600000,1.0600000,-0.0096646,-0.0021893,-0.2443061,-0.0096646,-0.0116196,-0.0188263
1.0625000,1.0625000,1.0625000,-0.0095247,-0.0021733,-0.2425430,-0.0095247,-0.0114789,-0.0185271
1.0650000,1.0650000,1.0650000,-0.0093872,-0.0021574,-0.2407968,-0.0093872,-0.0113404,-0.0182331
1.0675000,1.0675000,1.0675000,-0.0092520,-0.0021417,-0.2390675,-0.0092520,-0.0112040,-0.0179443
1.0700000,1.0700000,1.0700000,-0.0091191,-0.0021261,-0.2373547,-0.0091191,-0.0110697,-0.0176606
1.0725000,1.0725000,1.0725000,-0.0089884,-0.0021107,-0.2356585,-0.0089884,-0.0109375,-0.0173818
1.0750000,1.0750000,1.0750000,-0.0088599,-0.0020955,-0.2339784,-0.0088599,-0.0108073,-0.0171078
1.0775000,1.0775000,1.0775000,-0.0087335,-0.0020804,-0.2323143,-0.0087335,-0.0106791,-0.0168386
1.0800000,1.0800000,1.0800000,-0.0086092,-0.0020654,-0.2306661,-0.0086092,-0.0105528,-0.0165741
1.0825000,1.0825000,1.0825000,-0.0084871,-0.0020506,-0.2290336,-0.0084871,-0.0104284,-0.0163141
1.0850000,1.0850000,1.0850000,-0.0083669,-0.0020359,-0.2274165,-0.0083669,-0.0103060,-0.0160586
1.0875000,1.0875000,1.0875000,-0.0082487,-0.0020214,-0.2258146,-0.0082487,-0.0101853,-0.0158075
1.0900000,1.0900000,1.0900000,-0.0081325,-0.0020070,-0.2242279,-0.0081325,-0.0100665,-0.0155607
1.0925000,1.0925000,1.0925000,-0.0080182,-0.0019927,-0.2226561,-0.0080182,-0.0099495,-0.0153182
1.0950000,1.0950000,1.0950000,-0.0079057,-0.0019786,-0.2210990,-0.0079057,-0.0098342,-0.0150798
1.0975000,1.0975000,1.0975000,-0.0077952,-0.0019646,-0.2195565,-0.0077952,-0.0097206,-0.0148455
1.1000000,1.1000000,1.1000000,-0.0076864,-0.0019507,-0.2180284,-0.0076864,-0.0096087,-0.0146151
1.1025000,1.1025000,1.1025000,-0.0075794,-0.0019370,-0.2165145,-0.0075794,-0.0094985,-0.0143887
1.1050000,1.1050000,1.1050000,-0.0074741,-0.0019234,-0.2150147,-0.0074741,-0.0093899,-0.0141661
1.1075000,1.1075000,1.1075000,-0.0073705,-0.0019099,-0.2135288,-0.0073705,-0.0092829,-0.0139473
1.1100000,1.1100000,1.1100000,-0.0072686,-0.0018966,-0.2120566,-0.0072686,-0.0091775,-0.0137322
1.1125000,1.1125000,1.1125000,-0.0071684,-0.0018834,-0.2105980,-0.0071684,-0.0090736,-0.0135207
1.1150000,1.1150000,1.1150000,-0.0070698,-0.0018703,-0.2091528,-0.0070698,-0.0089712,-0.0133128
1.1175000,1.1175000,1.1175000,-0.0069727,-0.0018573,-0.2077209,-0.0069727,-0.0088703,-0.0131083
1.1200000,1.1200000,1.1200000,-0.0068772,-0.0018444,-0.2063020,-0.0068772,-0.0087709,-0.0129073
1.1225000,1.1225000,1.1225000,-0.0067833,-0.0018317,-0.2048962,-0.0067833,-0.0086729,-0.0127096
1.1250000,1.1250000,1.1250000,-0.0066908,-0.0018191,-0.2035032,-0.0066908,-0.0085764,-0.0125153
1.1275000,1.1275000,1.1275000,-0.0065998,-0.0018066,-0.2021228,-0.0065998,-0.0084812,-0.0123242
1.1300000,1.1300000,1.1300000,-0.0065103,-0.0017942,-0.2007550,-0.0065103,-0.0083874,-0.0121362
1.1325000,1.1325000,1.1325000,-0.0064222,-0.0017819,-0.1993995,-0.0064222,-0.0082949,-0.0119514
1.1350000,1.1350000,1.1350000,-0.0063354,-0.0017697,-0.1980563,-0.0063354,-0.0082037,-0.0117696
1.1375000,1.1375000,1.1375000,-0.0062501,-0.0017577,-0.1967252,-0.0062501,-0.0081139,-0.0115909
1.1400000,1.1400000,1.1400000,-0.0061661,-0.0017457,-0.1954060,-0.0061661,-0.0080253,-0.0114151
1.1425000,1.1425000,1.1425000,-0.0060834,-0.0017339,-0.1940987,-0.0060834,-0.0079380,-0.0112422
1.1450000,1.1450000,1.1450000,-0.0060020,-0.0017222,-0.1928031,-0.0060020,-0.0078519,-0.0110721
1.1475000,1.1475000,1.1475000,-0.0059218,-0.0017106,-0.1915190,-0.0059218,-0.0077670,-0.0109048
1.1500000,1.1500000,1.1500000,-0.0058430,-0.0016990,-0.1902464,-0.0058430,-0.0076833,-0.0107403
1.1525000,1.1525000,1.1525000,-0.0057653,-0.0016876,-0.1889851,-0.0057653,-0.0076007,-0.0105784
1.1550000,1.1550000,1.1550000,-0.0056889,-0.0016763,-0.1877349,-0.0056889,-0.0075194,-0.0104192
1.1575000,1.1575000,1.1575000,-0.0056136,-0.0016651,-0.1864959,-0.0056136,-0.0074391,-0.0102626
1.1600000,1.1600000,1.1600000,-0.0055395,-0.0016540,-0.1852677,-0.0055395,-0.0073600,-0.0101085
1.1625000,1.1625000,1.1625000,-0.0054666,-0.0016430,-0.1840504,-0.0054666,-0.0072819,-0.0099569
1.1650000,1.1650000,1.1650000,-0.0053947,-0.0016321,-0.1828438,-0.0053947,-0.0072050,-0.0098077
1.1675000,1.1675000,1.1675000,-0.0053240,-0.0016213,-0.1816477,-0.0053240,-0.0071290,-0.0096610
1.1700000,1.1700000,1.1700000,-0.0052543,-0.0016105,-0.1804621,-0.0052543,-0.0070542,-0.0095167
1.1725000,1.1725000,1.1725000,-0.0051858,-0.0015999,-0.1792869,-0.0051858,-0.0069803,-0.0093746
1.1750000,1.1750000,1.1750000,-0.0051182,-0.0015894,-0.1781219,-0.0051182,-0.0069075,-0.0092349
1.1775000,1.1775000,1.1775000,-0.0050517,-0.0015790,-0.1769670,-0.0050517,-0.0068356,-0.0090974
1.1800000,1.1800000,1.1800000,-0.0049862,-0.0015686,-0.1758221,-0.0049862,-0.0067647,-0.0089620
1.1825000,1.1825000,1.1825000,-0.0049217,-0.0015584,-0.1746872,-0.0049217,-0.0066948,-0.0088289
1.1850000,1.1850000,1.1850000,-0.0048582,-0.0015482,-0.1735620,-0.0048582,-0.0066258,-0.0086979
1.1875000,1.1875000,1.1875000,-0.0047956,-0.0015381,-0.1724465,-0.0047956,-0.0065578,-0.0085689
1.1900000,1.1900000,1.1900000,-0.0047340,-0.0015281,-0.1713406,-0.0047340,-0.0064906,-0.0084420
1.1925000,1.1925000,1.1925000,-0.0046732,-0.0015182,-0.1702442,-0.0046732,-0.0064244,-0.0083171
1.1950000,1.1950000,1.1950000,-0.0046134,-0.0015084,-0.1691572,-0.0046134,-0.0063590,-0.0081942
1.1975000,1.1975000,1.1975000,-0.0045545,-0.0014987,-0.1680794,-0.0045545,-0.0062945,-0.0080733
1.2000000,1.2000000,1.2000000,-0.0044965,-0.0014890,-0.1670108,-0.0044965,-0.0062309,-0.0079542
1.2025000,1.2025000,1.2025000,-0.0044393,-0.0014795,-0.1659513,-0.0044393,-0.0061681,-0.0078370
1.2050000,1.2050000,1.2050000,-0.0043830,-0.0014700,-0.1649008,-0.0043830,-0.0061061,-0.0077217
1.2075000,1.2075000,1.2075000,-0.0043275,-0.0014606,-0.1638592,-0.0043275,-0.0060449,-0.0076082
1.2100000,1.2100000,1.2100000,-0.0042729,-0.0014513,-0.1628264,-0.0042729,-0.0059846,-0.0074964
1.2125000,1.2125000,1.2125000,-0.0042190,-0.0014420,-0.1618022,-0.0042190,-0.0059250,-0.0073864
1.2150000,1.2150000,1.2150000,-0.0041660,-0.0014329,-0.1607867,-0.0041660,-0.0058662,-0.0072781
1.2175000,1.2175000,1.2175000,-0.0041137,-0.0014238,-0.1597797,-0.0041137,-0.0058082,-0.0071715
1.2200000,1.2200000,1.2200000,-0.0040622,-0.0014148,-0.1587812,-0.0040622,-0.0057509,-0.0070666
1.2225000,1.2225000,1.2225000,-0.0040114,-0.0014058,-0.1577910,-0.0040114,-0.0056944,-0.0069633
1.2250000,1.2250000,1.2250000,-0.0039614,-0.0013970,-0.1568090,-0.0039614,-0.0056386,-0.0068616
1.2275000,1.2275000,1.2275000,-0.0039121,-0.0013882,-0.1558352,-0.0039121,-0.0055835,-0.0067614
1.2300000,1.2300000,1.2300000,-0.0038635,-0.0013795,-0.1548695,-0.0038635,-0.0055291,-0.0066628
1.2325000,1.2325000,1.2325000,-0.0038156,-0.0013708,-0.1539118,-0.0038156,-0.0054754,-0.0065658
1.2350000,1.2350000,1.2350000,-0.0037685,-0.0013623,-0.1529620,-0.0037685,-0.0054224,-0.0064702
1.2375000,1.2375000,1.2375000,-0.0037220,-0.0013538,-0.1520200,-0.0037220,-0.0053701,-0.0063761
1.2400000,1.2400000,1.2400000,-0.0036761,-0.0013454,-0.1510858,-0.0036761,-0.0053184,-0.0062834
1.2425000,1.2425000,1.2425000,-0.0036310,-0.0013370,-0.1501593,-0.0036310,-0.0052674,-0.0061922
1.2450000,1.2450000,1.2450000,-0.0035864,-0.0013287,-0.1492403,-0.0035864,-0.0052170,-0.0061023
1.2475000,1.2475000,1.2475000,-0.0035426,-0.0013205,-0.1483289,-0.0035426,-0.0051673,-0.0060138
1.2500000,1.2500000,1.2500000,-0.0034993,-0.0013124,-0.1474249,-0.0034993,-0.0051181,-0.0059267
1.2525000,1.2525000,1.2525000,-0.0034567,-0.0013043,-0.1465283,-0.0034567,-0.0050696,-0.0058409
1.2550000,1.2550000,1.2550000,-0.0034146,-0.0012963,-0.1456390,-0.0034146,-0.0050217,-0.0057564
1.2575000,1.2575000,1.2575000,-0.0033732,-0.0012884,-0.1447568,-0.0033732,-0.0049744,-0.0056732
1.2600000,1.2600000,1.2600000,-0.0033324,-0.0012805,-0.1438818,-0.0033324,-0.0049277,-0.0055912
1.2625000,1.2625000,1.2625000,-0.0032921,-0.0012727,-0.1430139,-0.0032921,-0.0048816,-0.0055105
1.2650000,1.2650000,1.2650000,-0.0032524,-0.0012649,-0.1421530,-0.0032524,-0.0048360,-0.0054310
1.2675000,1.2675000,1.2675000,-0.0032132,-0.0012572,-0.1412990,-0.0032132,-0.0047910,-0.0053527
1.2700000,1.2700000,1.2700000,-0.0031746,-0.0012496,-0.1404519,-0.0031746,-0.0047466,-0.0052756
1.2725000,1.2725000,1.2725000,-0.0031366,-0.0012420,-0.1396115,-0.0031366,-0.0047027,-0.0051996
1.2750000,1.2750000,1.2750000,-0.0030991,-0.0012345,-0.1387779,-0.0030991,-0.0046593,-0.0051248
1.2775000,1.2775000,1.2775000,-0.0030621,-0.0012271,-0.1379509,-0.0030621,-0.0046165,-0.0050511
1.2800000,1.2800000,1.2800000,-0.0030256,-0.0012197,-0.1371305,-0.0030256,-0.0045741,-0.0049785
1.2825000,1.2825000,1.2825000,-0.0029896,-0.0012124,-0.1363167,-0.0029896,-0.0045323,-0.0049070
1.2850000,1.2850000,1.2850000,-0.0029542,-0.0012051,-0.1355093,-0.0029542,-0.0044910,-0.0048365
1.2875000,1.2875000,1.2875000,-0.0029192,-0.0011979,-0.1347082,-0.0029192,-0.0044502,-0.0047671
1.2900000,1.2900000,1.2900000,-0.0028847,-0.0011908,-0.1339135,-0.0028847,-0.0044099,-0.0046988
1.2925000,1.2925000,1.2925000,-0.0028507,-0.0011837,-0.1331251,-0.0028507,-0.0043701,-0.0046314
1.2950000,1.2950000,1.2950000,-0.0028171,-0.0011766,-0.1323429,-0.0028171,-0.0043307,-0.0045651
1.2975000,1.2975000,1.2975000,-0.0027840,-0.0011697,-0.1315668,-0.0027840,-0.0042918,-0.0044997
1.3000000,1.3000000,1.3000000,-0.0027514,-0.0011627,-0.1307968,-0.0027514,-0.0042534,-0.0044353
1.3025000,1.3025000,1.3025000,-0.0027192,-0.0011559,-0.1300328,-0.0027192,-0.0042154,-0.0043718
1.3050000,1.3050000,1.3050000,-0.0026874,-0.0011491,-0.1292747,-0.0026874,-0.0041779,-0.0043093
1.3075000,1.3075000,1.3075000,-0.0026561,-0.0011423,-0.1285226,-0.0026561,-0.0041408,-0.0042477
1.3100000,1.3100000,1.3100000,-0.0026252,-0.0011356,-0.1277763,-0.0026252,-0.0041042,-0.0041870
1.3125000,1.3125000,1.3125000,-0.0025947,-0.0011289,-0.1270359,-0.0025947,-0.0040680,-0.0041272
1.3150000,1.3150000,1.3150000,-0.0025647,-0.0011223,-0.1263011,-0.0025647,-0.0040322,-0.0040682
1.3175000,1.3175000,1.3175000,-0.0025350,-0.0011158,-0.1255720,-0.0025350,-0.0039968,-0.0040102
1.3200000,1.3200000,1.3200000,-0.0025058,-0.0011093,-0.1248486,-0.0025058,-0.0039619,-0.0039529
1.3225000,1.3225000,1.3225000,-0.0024769,-0.0011028,-0.1241307,-0.0024769,-0.0039273,-0.0038965
1.3250000,1.3250000,1.3250000,-0.0024485,-0.0010964,-0.1234183,-0.0024485,-0.0038932,-0.0038410
1.3275000,1.3275000,1.3275000,-0.0024204,-0.0010901,-0.1227114,-0.0024204,-0.0038594,-0.0037862
1.3300000,1.3300000,1.3300000,-0.0023927,-0.0010838,-0.1220099,-0.0023927,-0.0038260,-0.0037322
1.3325000,1.3325000,1.3325000,-0.0023653,-0.0010775,-0.1213138,-0.0023653,-0.0037930,-0.0036790
1.3350000,1.3350000,1.3350000,-0.0023383,-0.0010713,-0.1206230,-0.0023383,-0.0037604,-0.0036266
1.3375000,1.3375000,1.3375000,-0.0023117,-0.0010652,-0.1199374,-0.0023117,-0.0037282,-0.0035750
1.3400000,1.3400000,1.3400000,-0.0022855,-0.0010591,-0.1192570,-0.0022855,-0.0036963,-0.0035241
1.3425000,1.3425000,1.3425000,-0.0022595,-0.0010530,-0.1185818,-0.0022595,-0.0036648,-0.0034739
1.3450000,1.3450000,1.3450000,-0.0022340,-0.0010470,-0.1179117,-0.0022340,-0.0036337,-0.0034244
1.3475000,1.3475000,1.3475000,-0.0022087,-0.0010410,-0.1172466,-0.0022087,-0.0036029,-0.0033757
1.3500000,1.3500000,1.3500000,-0.0021838,-0.0010351,-0.1165866,-0.0021838,-0.0035725,-0.0033276
1.3525000,1.3525000,1.3525000,-0.0021593,-0.0010292,-0.1159315,-0.0021593,-0.0035424,-0.0032803
1.3550000,1.3550000,1.3550000,-0.0021350,-0.0010234,-0.1152814,-0.0021350,-0.0035126,-0.0032336
1.3575000,1.3575000,1.3575000,-0.0021111,-0.0010176,-0.1146361,-0.0021111,-0.0034832,-0.0031876
1.3600000,1.3600000,1.3600000,-0.0020875,-0.0010119,-0.1139956,-0.0020875,-0.0034541,-0.0031422
1.3625000,1.3625000,1.3625000,-0.0020641,-0.0010061,-0.1133599,-0.0020641,-0.0034253,-0.0030975
1.3650000,1.3650000,1.3650000,-0.0020411,-0.0010005,-0.1127290,-0.0020411,-0.0033969,-0.0030534
1.3675000,1.3675000,1.3675000,-0.0020184,-0.0009949,-0.1121027,-0.0020184,-0.0033687,-0.0030100
1.3700000,1.3700000,1.3700000,-0.0019960,-0.0009893,-0.1114811,-0.0019960,-0.0033409,-0.0029672
1.3725000,1.3725000,1.3725000,-0.0019739,-0.0009838,-0.1108641,-0.0019739,-0.0033134,-0.0029249
1.3750000,1.3750000,1.3750000,-0.0019521,-0.0009783,-0.1102517,-0.0019521,-0.0032861,-0.0028833
1.3775000,1.3775000,1.3775000,-0.0019305,-0.0009728,-0.1096437,-0.0019305,-0.0032592,-0.0028423
1.3800000,1.3800000,1.3800000,-0.0019092,-0.0009674,-0.1090403,-0.0019092,-0.0032326,-0.0028018
1.3825000,1.3825000,1.3825000,-0.0018882,-0.0009620,-0.1084413,-0.0018882,-0.0032063,-0.0027619
1.3850000,1.3850000,1.3850000,-0.0018675,-0.0009567,-0.1078467,-0.0018675,-0.0031802,-0.0027226
1.3875000,1.3875000,1.3875000,-0.0018470,-0.0009514,-0.1072564,-0.0018470,-0.0031545,-0.0026839
1.3900000,1.3900000,1.3900000,-0.0018268,-0.0009462,-0.1066705,-0.0018268,-0.0031290,-0.0026456
1.3925000,1.3925000,1.3925000,-0.0018069,-0.0009410,-0.1060888,-0.0018069,-0.0031038,-0.0026080
1.3950000,1.3950000,1.3950000,-0.0017872,-0.0009358,-0.1055114,-0.0017872,-0.0030788,-0.0025708
1.3975000,1.3975000,1.3975000,-0.0017677,-0.0009307,-0.1049381,-0.0017677,-0.0030542,-0.0025342
1.4000000,1.4000000,1.4000000,-0.0017485,-0.0009256,-0.1043690,-0.0017485,-0.0030298,-0.0024980
1.4025000,1.4025000,1.4025000,-0.0017296,-0.0009205,-0.1038041,-0.0017296,-0.0030056,-0.0024624
1.4050000,1.4050000,1.4050000,-0.0017109,-0.0009155,-0.1032432,-0.0017109,-0.0029818,-0.0024273
1.4075000,1.4075000,1.4075000,-0.0016924,-0.0009105,-0.1026864,-0.0016924,-0.0029581,-0.0023927
1.4100000,1.4100000,1.4100000,-0.0016742,-0.0009055,-0.1021336,-0.0016742,-0.0029348,-0.0023585
1.4125000,1.4125000,1.4125000,-0.0016562,-0.0009006,-0.1015847,-0.0016562,-0.0029116,-0.0023248
1.4150000,1.4150000,1.4150000,-0.0016384,-0.0008957,-0.1010398,-0.0016384,-0.0028887,-0.0022916
1.4175000,1.4175000,1.4175000,-0.0016208,-0.0008909,-0.1004988,-0.0016208,-0.0028661,-0.0022589
1.4200000,1.4200000,1.4200000,-0.0016035,-0.0008861,-0.0999617,-0.0016035,-0.0028437,-0.0022266
1.4225000,1.4225000,1.4225000,-0.0015863,-0.0008813,-0.0994284,-0.0015863,-0.0028215,-0.0021947
1.4250000,1.4250000,1.4250000,-0.0015694,-0.0008766,-0.0988989,-0.0015694,-0.0027996,-0.0021633
1.4275000,1.4275000,1.4275000,-0.0015527,-0.0008719,-0.0983732,-0.0015527,-0.0027779,-0.0021323
1.4300000,1.4300000,1.4300000,-0.0015362,-0.0008672,-0.0978512,-0.0015362,-0.0027564,-0.0021018
1.4325000,1.4325000,1.4325000,-0.0015199,-0.0008626,-0.0973329,-0.0015199,-0.0027352,-0.0020717
1.4350000,1.4350000,1.4350000,-0.0015038,-0.0008579,-0.0968183,-0.0015038,-0.0027141,-0.0020420
1.4375000,1.4375000,1.4375000,-0.0014879,-0.0008534,-0.0963073,-0.0014879,-0.0026933,-0.0020127
1.4400000,1.4400000,1.4400000,-0.0014723,-0.0008488,-0.0957999,-0.0014723,-0.0026727,-0.0019838
1.4425000,1.4425000,1.4425000,-0.0014568,-0.0008443,-0.0952961,-0.0014568,-0.0026523,-0.0019553
1.4450000,1.4450000,1.4450000,-0.0014414,-0.0008399,-0.0947958,-0.0014414,-0.0026321,-0.0019271
1.4475000,1.4475000,1.4475000,-0.0014263,-0.0008354,-0.0942990,-0.0014263,-0.0026122,-0.0018994
1.4500000,1.4500000,1.4500000,-0.0014114,-0.0008310,-0.0938057,-0.0014114,-0.0025924,-0.0018721
1.4525000,1.4525000,1.4525000,-0.0013966,-0.0008266,-0.0933158,-0.0013966,-0.0025728,-0.0018451
1.4550000,1.4550000,1.4550000,-0.0013821,-0.0008223,-0.0928294,-0.0013821,-0.0025534,-0.0018185
1.4575000,1.4575000,1.4575000,-0.0013677,-0.0008179,-0.0923463,-0.0013677,-0.0025343,-0.0017922
1.4600000,1.4600000,1.4600000,-0.0013534,-0.0008137,-0.0918666,-0.0013534,-0.0025153,-0.0017663
1.4625000,1.4625000,1.4625000,-0.0013394,-0.0008094,-0.0913903,-0.0013394,-0.0024965,-0.0017408
1.4650000,1.4650000,1.4650000,-0.0013255,-0.0008052,-0.0909172,-0.0013255,-0.0024779,-0.0017156
1.4675000,1.4675000,1.4675000,-0.0013118,-0.0008010,-0.0904474,-0.0013118,-0.0024595,-0.0016908
1.4700000,1.4700000,1.4700000,-0.0012982,-0.0007968,-0.0899808,-0.0012982,-0.0024413,-0.0016662
1.4725000,1.4725000,1.4725000,-0.0012849,-0.0007927,-0.0895175,-0.0012849,-0.0024232,-0.0016421
1.4750000,1.4750000,1.4750000,-0.0012716,-0.0007885,-0.0890573,-0.0012716,-0.0024054,-0.0016182
1.4775000,1.4775000,1.4775000,-0.0012586,-0.0007845,-0.0886003,-0.0012586,-0.0023877,-0.0015947
1.4800000,1.4800000,1.4800000,-0.0012457,-0.0007804,-0.0881464,-0.0012457,-0.0023702,-0.0015715
1.4825000,1.4825000,1.4825000,-0.0012329,-0.0007764,-0.0876957,-0.0012329,-0.0023528,-0.0015486
1.4850000,1.4850000,1.4850000,-0.0012203,-0.0007724,-0.0872480,-0.0012203,-0.0023357,-0.0015260
1.4875000,1.4875000,1.4875000,-0.0012079,-0.0007684,-0.0868034,-0.0012079,-0.0023187,-0.0015037
1.4900000,1.4900000,1.4900000,-0.0011956,-0.0007645,-0.0863617,-0.0011956,-0.0023019,-0.0014817
1.4925000,1.4925000,1.4925000,-0.0011834,-0.0007605,-0.0859231,-0.0011834,-0.0022852,-0.0014600
1.4950000,1.4950000,1.4950000,-0.0011714,-0.0007567,-0.0854875,-0.0011714,-0.0022687,-0.0014386
1.4975000,1.4975000,1.4975000,-0.0011595,-0.0007528,-0.0850548,-0.0011595,-0.0022524,-0.0014175
1.5000000,1.5000000,1.5000000,-0.0011478,-0.0007489,-0.0846250,-0.0011478,-0.0022362,-0.0013967
1.5025000,1.5025000,1.5025000,-0.0011362,-0.0007451,-0.0841982,-0.0011362,-0.0022202,-0.0013761
1.5050000,1.5050000,1.5050000,-0.0011248,-0.0007413,-0.0837742,-0.0011248,-0.0022043,-0.0013558
1.5075000,1.5075000,1.5075000,-0.0011135,-0.0007376,-0.0833530,-0.0011135,-0.0021886,-0.0013358
1.5100000,1.5100000,1.5100000,-0.0011023,-0.0007339,-0.0829347,-0.0011023,-0.0021730,-0.0013161
1.5125000,1.5125000,1.5125000,-0.0010912,-0.0007301,-0.0825192,-0.0010912,-0.0021576,-0.0012966
1.5150000,1.5150000,1.5150000,-0.0010803,-0.0007265,-0.0821065,-0.0010803,-0.0021424,-0.0012774
1.5175000,1.5175000,1.5175000,-0.0010695,-0.0007228,-0.0816965,-0.0010695,-0.0021272,-0.0012584
1.5200000,1.5200000,1.5200000,-0.0010588,-0.0007192,-0.0812893,-0.0010588,-0.0021123,-0.0012397
1.5225000,1.5225000,1.5225000,-0.0010483,-0.0007156,-0.0808847,-0.0010483,-0.0020975,-0.0012213
1.5250000,1.5250000,1.5250000,-0.0010378,-0.0007120,-0.0804829,-0.0010378,-0.0020828,-0.0012031
1.5275000,1.5275000,1.5275000,-0.0010275,-0.0007084,-0.0800837,-0.0010275,-0.0020682,-0.0011851
1.5300000,1.5300000,1.5300000,-0.0010174,-0.0007049,-0.0796872,-0.0010174,-0.0020538,-0.0011673
1.5325000,1.5325000,1.5325000,-0.0010073,-0.0007014,-0.0792933,-0.0010073,-0.0020395,-0.0011498
1.5350000,1.5350000,1.5350000,-0.0009973,-0.0006979,-0.0789019,-0.0009973,-0.0020254,-0.0011326
1.5375000,1.5375000,1.5375000,-0.0009875,-0.0006944,-0.0785132,-0.0009875,-0.0020114,-0.0011155
1.5400000,1.5400000,1.5400000,-0.0009778,-0.0006909,-0.0781270,-0.0009778,-0.0019975,-0.0010987
1.5425000,1.5425000,1.5425000,-0.0009682,-0.0006875,-0.0777434,-0.0009682,-0.0019838,-0.0010821
1.5450000,1.5450000,1.5450000,-0.0009587,-0.0006841,-0.0773622,-0.0009587,-0.0019702,-0.0010657
1.5475000,1.5475000,1.5475000,-0.0009493,-0.0006807,-0.0769836,-0.0009493,-0.0019567,-0.0010496
1.5500000,1.5500000,1.5500000,-0.0009400,-0.0006774,-0.0766075,-0.0009400,-0.0019433,-0.0010336
1.5525000,1.5525000,1.5525000,-0.0009308,-0.0006741,-0.0762337,-0.0009308,-0.0019301,-0.0010179
1.5550000,1.5550000,1.5550000,-0.0009218,-0.0006707,-0.0758625,-0.0009218,-0.0019170,-0.0010024
1.5575000,1.5575000,1.5575000,-0.0009128,-0.0006675,-0.0754936,-0.0009128,-0.0019040,-0.0009870
1.5600000,1.5600000,1.5600000,-0.0009039,-0.0006642,-0.0751271,-0.0009039,-0.0018911,-0.0009719
1.5625000,1.5625000,1.5625000,-0.0008952,-0.0006609,-0.0747631,-0.0008952,-0.0018783,-0.0009570
1.5650000,1.5650000,1.5650000,-0.0008865,-0.0006577,-0.0744013,-0.0008865,-0.0018657,-0.0009423
1.5675000,1.5675000,1.5675000,-0.0008779,-0.0006545,-0.0740419,-0.0008779,-0.0018532,-0.0009277
1.5700000,1.5700000,1.5700000,-0.0008694,-0.0006513,-0.0736848,-0.0008694,-0.0018408,-0.0009134
1.5725000,1.5725000,1.5725000,-0.0008611,-0.0006482,-0.0733301,-0.0008611,-0.0018285,-0.0008992
1.5750000,1.5750000,1.5750000,-0.0008528,-0.0006450,-0.0729776,-0.0008528,-0.0018163,-0.0008852
1.5775000,1.5775000,1.5775000,-0.0008446,-0.0006419,-0.0726273,-0.0008446,-0.0018042,-0.0008715
1.5800000,1.5800000,1.5800000,-0.0008365,-0.0006388,-0.0722793,-0.0008365,-0.0017923,-0.0008578
1.5825000,1.5825000,1.5825000,-0.0008285,-0.0006357,-0.0719335,-0.0008285,-0.0017804,-0.0008444
1.5850000,1.5850000,1.5850000,-0.0008206,-0.0006327,-0.0715900,-0.0008206,-0.0017687,-0.0008311
1.5875000,1.5875000,1.5875000,-0.0008127,-0.0006296,-0.0712486,-0.0008127,-0.0017570,-0.0008181
1.5900000,1.5900000,1.5900000,-0.0008050,-0.0006266,-0.0709094,-0.0008050,-0.0017455,-0.0008051
1.5925000,1.5925000,1.5925000,-0.0007973,-0.0006236,-0.0705724,-0.0007973,-0.0017341,-0.0007924
1.5950000,1.5950000,1.5950000,-0.0007898,-0.0006206,-0.0702375,-0.0007898,-0.0017227,-0.0007798
1.5975000,1.5975000,1.5975000,-0.0007823,-0.0006176,-0.0699047,-0.0007823,-0.0017115,-0.0007674
