# r[nm],d[nm],daligned[nm],U(d)[kj/mol],V(d)[e/nm],Uslab(d)[kJ/mol],UC(d)[kJ/mol],UK(d)[kJ/mol],UCl(d)[kJ/mol]
0.1750000,0.1750000,0.1750000,1721.3707052,-0.5506457,375.3654569,1721.3707052,1078.4688828,inf
0.1775000,0.1775000,0.1775000,1519.4137388,-0.5416729,325.2454726,1519.4137388,950.7862307,inf
0.1800000,0.1800000,0.1800000,1342.0741394,-0.5328140,281.9270210,1342.0741394,838.7308001,inf
0.1825000,0.1825000,0.1825000,1186.2263401,-0.5240702,244.4303389,1186.2263401,740.3130510,inf
0.1850000,0.1850000,0.1850000,1049.1569411,-0.5154421,211.9265900,1049.1569411,653.8058261,inf
0.1875000,0.1875000,0.1875000,928.5082936,-0.5069294,183.7129846,928.5082936,577.7087541,inf
0.1900000,0.1900000,0.1900000,822.2300785,-0.4985311,159.1922991,822.2300785,510.7177232,inf
0.1925000,0.1925000,0.1925000,728.5377735,-0.4902456,137.8559554,728.5377735,451.6986184,inf
0.1950000,0.1950000,0.1950000,645.8770306,-0.4820712,119.2699956,645.8770306,399.6646364,inf
0.1975000,0.1975000,0.1975000,572.8930927,-0.4740064,103.0634198,572.8930927,353.7566234,inf
0.2000000,0.2000000,0.2000000,508.4044727,-0.4660503,88.9184627,508.4044727,313.2260042,inf
0.2025000,0.2025000,0.2025000,451.3802207,-0.4582031,76.5624644,451.3802207,277.4199683,inf
0.2050000,0.2050000,0.2050000,400.9202152,-0.4504657,65.7610598,400.9202152,245.7686412,1736.7374863
0.2075000,0.2075000,0.2075000,356.2380294,-0.4428400,56.3124579,356.2380294,217.7740061,1548.9275163
0.2100000,0.2100000,0.2100000,316.6460204,-0.4353283,48.0426280,316.6460204,193.0003610,1382.2398918
0.2125000,0.2125000,0.2125000,281.5423634,-0.4279330,40.8012401,281.5423634,171.0661079,1234.1899452
0.2150000,0.2150000,0.2150000,250.3998025,-0.4206562,34.4582348,250.3998025,151.6366902,1102.5982792
0.2175000,0.2175000,0.2175000,222.7559150,-0.4134995,28.9009194,222.7559150,134.4185113,985.5515644
0.2200000,0.2200000,0.2200000,198.2047003,-0.4064640,24.0315051,198.2047003,119.1536885,881.3686134
0.2225000,0.2225000,0.2225000,176.3893223,-0.3995501,19.7650146,176.3893223,105.6155198,788.5710224
0.2250000,0.2250000,0.2250000,156.9958431,-0.3927577,16.0275011,156.9958431,93.6045574,705.8577505
0.2275000,0.2275000,0.2275000,139.7478088,-0.3860861,12.7545296,139.7478088,82.9452001,632.0830793
0.2300000,0.2300000,0.2300000,124.4015619,-0.3795343,9.8898803,124.4015619,73.4827323,566.2374543
0.2325000,0.2325000,0.2325000,110.7421760,-0.3731011,7.3844386,110.7421760,65.0807455,507.4307801
0.2350000,0.2350000,0.2350000,98.5799219,-0.3667850,5.1952448,98.5799219,57.6188914,454.8778078
0.2375000,0.2375000,0.2375000,87.7471920,-0.3605844,3.2846781,87.7471920,50.9909214,407.8853225
0.2400000,0.2400000,0.2400000,78.0958165,-0.3544975,1.6197550,78.0958165,45.1029736,365.8408976
0.2425000,0.2425000,0.2425000,69.4947211,-0.3485225,0.1715244,69.4947211,39.8720765,328.2030256
0.2450000,0.2450000,0.2450000,61.8278773,-0.3426577,-1.0854555,61.8278773,35.2248392,294.4924710
0.2475000,0.2475000,0.2475000,54.9925095,-0.3369011,-2.1735739,54.9925095,31.0963051,264.2847064
0.2500000,0.2500000,0.2500000,48.8975232,-0.3312510,-3.1125712,48.8975232,27.4289478,237.2033060
0.2525000,0.2525000,0.2525000,43.4621272,-0.3257055,-3.9198986,43.4621272,24.1717906,212.9141808
0.2550000,0.2550000,0.2550000,38.6146241,-0.3202628,-4.6110416,38.6146241,21.2796340,191.1205489
0.2575000,0.2575000,0.2575000,34.2913483,-0.3149210,-5.1998055,34.2913483,18.7123777,171.5585428
0.2600000,0.2600000,0.2600000,30.4357327,-0.3096785,-5.6985586,30.4357327,16.4344246,153.9933703
0.2625000,0.2625000,0.2625000,26.9974876,-0.3045334,-6.1184300,26.9974876,14.4141561,138.2159516
0.2650000,0.2650000,0.2650000,23.9318784,-0.2994840,-6.4694606,23.9318784,12.6234685,124.0399706
0.2675000,0.2675000,0.2675000,21.1990896,-0.2945287,-6.7607139,21.1990896,11.0373616,111.2992831
0.2700000,0.2700000,0.2700000,18.7636636,-0.2896656,-7.0003579,18.7636636,9.6335694,99.8456373
0.2725000,0.2725000,0.2725000,16.5940063,-0.2848931,-7.1957280,16.5940063,8.3922247,89.5466636
0.2750000,0.2750000,0.2750000,14.6619492,-0.2802095,-7.3533778,14.6619492,7.2955479,80.2841024
0.2775000,0.2775000,0.2775000,12.9423606,-0.2756132,-7.4791217,12.9423606,6.3275581,71.9522371
0.2800000,0.2800000,0.2800000,11.4127975,-0.2711024,-7.5780687,11.4127975,5.4738063,64.4565104
0.2825000,0.2825000,0.2825000,10.0531896,-0.2666751,-7.6546464,10.0531896,4.7211416,57.7122979
0.2850000,0.2850000,0.2850000,8.8455479,-0.2623291,-7.7126154,8.8455479,4.0575245,51.6438238
0.2875000,0.2875000,0.2875000,7.7736928,-0.2580617,-7.7550814,7.7736928,3.4719012,46.1831981
0.2900000,0.2900000,0.2900000,6.8230005,-0.2538700,-7.7845123,6.8230005,2.9541475,41.2695642
0.2925000,0.2925000,0.2925000,5.9801746,-0.2497502,-7.8027730,5.9801746,2.4950759,36.8483415
0.2950000,0.2950000,0.2950000,5.2330523,-0.2456983,-7.8111839,5.2330523,2.0864870,32.8705532
0.2975000,0.2975000,0.2975000,4.5704589,-0.2417099,-7.8106056,4.5704589,1.7212334,29.2922285
0.3000000,0.3000000,0.3000000,3.9821201,-0.2377808,-7.8015457,3.9821201,1.3932648,26.0738719
0.3025000,0.3025000,0.3025000,3.4586335,-0.2339071,-7.7842799,3.4586335,1.0976235,23.1799901
0.3050000,0.3050000,0.3050000,2.9914879,-0.2300854,-7.7589774,2.9914879,0.8303806,20.5786715
0.3075000,0.3075000,0.3075000,2.5731122,-0.2263136,-7.7258192,2.5731122,0.5885136,18.2412115
0.3100000,0.3100000,0.3100000,2.1969241,-0.2225902,-7.6850925,2.1969241,0.3697443,16.1417772
0.3125000,0.3125000,0.3125000,1.8573542,-0.2189149,-7.6372481,1.8573542,0.1723604,14.2571084
0.3150000,0.3150000,0.3150000,1.5498257,-0.2152883,-7.5829100,1.5498257,-0.0049571,12.5662473
0.3175000,0.3175000,0.3175000,1.2706818,-0.2117113,-7.5228404,1.2706818,-0.1632828,11.0502923
0.3200000,0.3200000,0.3200000,1.0170698,-0.2081856,-7.4578705,1.0170698,-0.3035646,9.6921710
0.3225000,0.3225000,0.3225000,0.7867936,-0.2047128,-7.3888187,0.7867936,-0.4267088,8.4764277
0.3250000,0.3250000,0.3250000,0.5781583,-0.2012944,-7.3164166,0.5781583,-0.5336363,7.3890236
0.3275000,0.3275000,0.3275000,0.3898211,-0.1979319,-7.2412600,0.3898211,-0.6253158,6.4171519
0.3300000,0.3300000,0.3300000,0.2206635,-0.1946265,-7.1637953,0.2206635,-0.7027801,5.5490728
0.3325000,0.3325000,0.3325000,0.0696900,-0.1913792,-7.0843398,0.0696900,-0.7671305,4.7739753
0.3350000,0.3350000,0.3350000,-0.0640467,-0.1881906,-7.0031313,-0.0640467,-0.8195332,4.0818740
0.3375000,0.3375000,0.3375000,-0.1814963,-0.1850615,-6.9203892,-0.1814963,-0.8612103,3.4635448
0.3400000,0.3400000,0.3400000,-0.2836419,-0.1819920,-6.8363782,-0.2836419,-0.8934237,2.9104989
0.3425000,0.3425000,0.3425000,-0.3715178,-0.1789819,-6.7514593,-0.3715178,-0.9174554,2.4149894
0.3450000,0.3450000,0.3450000,-0.4462156,-0.1760302,-6.6661285,-0.4462156,-0.9345808,1.9700368
0.3475000,0.3475000,0.3475000,-0.5088833,-0.1731347,-6.5810371,-0.5088833,-0.9460408,1.5694588
0.3500000,0.3500000,0.3500000,-0.5607164,-0.1702922,-6.4969912,-0.5607164,-0.9530117,1.2078880
0.3525000,0.3525000,0.3525000,-0.6029439,-0.1674977,-6.4149210,-0.6029439,-0.9565795,0.8807638
0.3550000,0.3550000,0.3550000,-0.6368080,-0.1647453,-6.3358127,-0.6368080,-0.9577187,0.5842930
0.3575000,0.3575000,0.3575000,-0.6635390,-0.1620282,-6.2606062,-0.6635390,-0.9572777,0.3153792
0.3600000,0.3600000,0.3600000,-0.6843296,-0.1593392,-6.1900763,-0.6843296,-0.9559702,0.0715273
0.3625000,0.3625000,0.3625000,-0.7003092,-0.1566714,-6.1247247,-0.7003092,-0.9543714,-0.1492656
0.3650000,0.3650000,0.3650000,-0.7125218,-0.1540178,-6.0647119,-0.7125218,-0.9529167,-0.3486225
0.3675000,0.3675000,0.3675000,-0.7219091,-0.1513721,-6.0098456,-0.7219091,-0.9519034,-0.5278901
0.3700000,0.3700000,0.3700000,-0.7292988,-0.1487282,-5.9596227,-0.7292988,-0.9514958,-0.6882304
0.3725000,0.3725000,0.3725000,-0.7353975,-0.1460805,-5.9133086,-0.7353975,-0.9517355,-0.8306942
0.3750000,0.3750000,0.3750000,-0.7407862,-0.1434242,-5.8700281,-0.7407862,-0.9525591,-0.9562782
0.3775000,0.3775000,0.3775000,-0.7459181,-0.1407554,-5.8288533,-0.7459181,-0.9538229,-1.0659665
0.3800000,0.3800000,0.3800000,-0.7511183,-0.1380718,-5.7888743,-0.7511183,-0.9553334,-1.1607592
0.3825000,0.3825000,0.3825000,-0.7565879,-0.1353731,-5.7492544,-0.7565879,-0.9568802,-1.2416895
0.3850000,0.3850000,0.3850000,-0.7624121,-0.1326610,-5.7092689,-0.7624121,-0.9582637,-1.3098311
0.3875000,0.3875000,0.3875000,-0.7685766,-0.1299396,-5.6683358,-0.7685766,-0.9593154,-1.3662971
0.3900000,0.3900000,0.3900000,-0.7749895,-0.1272148,-5.6260396,-0.7749895,-0.9599048,-1.4122308
0.3925000,0.3925000,0.3925000,-0.7815100,-0.1244937,-5.5821487,-0.7815100,-0.9599369,-1.4487917
0.3950000,0.3950000,0.3950000,-0.7879758,-0.1217834,-5.5366210,-0.7879758,-0.9593403,-1.4771355
0.3975000,0.3975000,0.3975000,-0.7942280,-0.1190902,-5.4895966,-0.7942280,-0.9580542,-1.4983943
0.4000000,0.4000000,0.4000000,-0.8001273,-0.1164193,-5.4413767,-0.8001273,-0.9560198,-1.5136567
0.4025000,0.4025000,0.4025000,-0.8055598,-0.1137741,-5.3923864,-0.8055598,-0.9531803,-1.5239499
0.4050000,0.4050000,0.4050000,-0.8104347,-0.1111565,-5.3431223,-0.8104347,-0.9494912,-1.5302268
0.4075000,0.4075000,0.4075000,-0.8146766,-0.1085676,-5.2940871,-0.8146766,-0.9449383,-1.5333550
0.4100000,0.4100000,0.4100000,-0.8182179,-0.1060082,-5.2457228,-0.8182179,-0.9395554,-1.5341103
0.4125000,0.4125000,0.4125000,-0.8209971,-0.1034786,-5.1983587,-0.8209971,-0.9334350,-1.5331705
0.4150000,0.4150000,0.4150000,-0.8229643,-0.1009796,-5.1521855,-0.8229643,-0.9267279,-1.5311111
0.4175000,0.4175000,0.4175000,-0.8240927,-0.0985113,-5.1072635,-0.8240927,-0.9196299,-1.5284018
0.4200000,0.4200000,0.4200000,-0.8243918,-0.0960738,-5.0635553,-0.8243918,-0.9123614,-1.5254054
0.4225000,0.4225000,0.4225000,-0.8239157,-0.0936672,-5.0209670,-0.8239157,-0.9051432,-1.5223797
0.4250000,0.4250000,0.4250000,-0.8227638,-0.0912922,-4.9793772,-0.8227638,-0.8981761,-1.5194856
0.4275000,0.4275000,0.4275000,-0.8210719,-0.0889509,-4.9386461,-0.8210719,-0.8916252,-1.5167990
0.4300000,0.4300000,0.4300000,-0.8189970,-0.0866475,-4.8986064,-0.8189970,-0.8856114,-1.5143284
0.4325000,0.4325000,0.4325000,-0.8167015,-0.0843873,-4.8590511,-0.8167015,-0.8802084,-1.5120334
0.4350000,0.4350000,0.4350000,-0.8143379,-0.0821767,-4.8197294,-0.8143379,-0.8754474,-1.5098429
0.4375000,0.4375000,0.4375000,-0.8120401,-0.0800208,-4.7803570,-0.8120401,-0.8713274,-1.5076691
0.4400000,0.4400000,0.4400000,-0.8099184,-0.0779224,-4.7406399,-0.8099184,-0.8678315,-1.5054176
0.4425000,0.4425000,0.4425000,-0.8080595,-0.0758808,-4.7003029,-0.8080595,-0.8649430,-1.5029940
0.4450000,0.4450000,0.4450000,-0.8065293,-0.0738910,-4.6591141,-0.8065293,-0.8626579,-1.5003078
0.4475000,0.4475000,0.4475000,-0.8053796,-0.0719447,-4.6168995,-0.8053796,-0.8609868,-1.4972773
0.4500000,0.4500000,0.4500000,-0.8046546,-0.0700312,-4.5735453,-0.8046546,-0.8599470,-1.4938348
0.4525000,0.4525000,0.4525000,-0.8043982,-0.0681394,-4.5289929,-0.8043982,-0.8595466,-1.4899315
0.4550000,0.4550000,0.4550000,-0.8046563,-0.0662599,-4.4832292,-0.8046563,-0.8597672,-1.4855418
0.4575000,0.4575000,0.4575000,-0.8054735,-0.0643866,-4.4362764,-0.8054735,-0.8605517,-1.4806640
0.4600000,0.4600000,0.4600000,-0.8068847,-0.0625183,-4.3881841,-0.8068847,-0.8617999,-1.4753175
0.4625000,0.4625000,0.4625000,-0.8089030,-0.0606584,-4.3390233,-0.8089030,-0.8633761,-1.4695376
0.4650000,0.4650000,0.4650000,-0.8115074,-0.0588149,-4.2888815,-0.8115074,-0.8651220,-1.4633685
0.4675000,0.4675000,0.4675000,-0.8146369,-0.0569984,-4.2378594,-0.8146369,-0.8668749,-1.4568581
0.4700000,0.4700000,0.4700000,-0.8181897,-0.0552201,-4.1860675,-0.8181897,-0.8684844,-1.4500552
0.4725000,0.4725000,0.4725000,-0.8220326,-0.0534895,-4.1336233,-0.8220326,-0.8698235,-1.4430108
0.4750000,0.4750000,0.4750000,-0.8260148,-0.0518127,-4.0806481,-0.8260148,-0.8707944,-1.4357818
0.4775000,0.4775000,0.4775000,-0.8299846,-0.0501915,-4.0272643,-0.8299846,-0.8713263,-1.4284367
0.4800000,0.4800000,0.4800000,-0.8338049,-0.0486229,-3.9735926,-0.8338049,-0.8713697,-1.4210597
0.4825000,0.4825000,0.4825000,-0.8373622,-0.0471003,-3.9197502,-0.8373622,-0.8708891,-1.4137518
0.4850000,0.4850000,0.4850000,-0.8405696,-0.0456155,-3.8658484,-0.8405696,-0.8698569,-1.4066283
0.4875000,0.4875000,0.4875000,-0.8433637,-0.0441604,-3.8119920,-0.8433637,-0.8682508,-1.3998115
0.4900000,0.4900000,0.4900000,-0.8456974,-0.0427287,-3.7582778,-0.8456974,-0.8660533,-1.3934209
0.4925000,0.4925000,0.4925000,-0.8475332,-0.0413172,-3.7047943,-0.8475332,-0.8632510,-1.3875609
0.4950000,0.4950000,0.4950000,-0.8488380,-0.0399253,-3.6516216,-0.8488380,-0.8598345,-1.3823087
0.4975000,0.4975000,0.4975000,-0.8495815,-0.0385548,-3.5988311,-0.8495815,-0.8557963,-1.3777035
0.5000000,0.5000000,0.5000000,-0.8497362,-0.0372085,-3.5464861,-0.8497362,-0.8511279,-1.3737411
0.5025000,0.5025000,0.5025000,-0.8492780,-0.0358896,-3.4946421,-0.8492780,-0.8458187,-1.3703724
0.5050000,0.5050000,0.5050000,-0.8481855,-0.0346011,-3.4433470,-0.8481855,-0.8398565,-1.3675094
0.5075000,0.5075000,0.5075000,-0.8464384,-0.0333461,-3.3926419,-0.8464384,-0.8332296,-1.3650360
0.5100000,0.5100000,0.5100000,-0.8440153,-0.0321276,-3.3425615,-0.8440153,-0.8259320,-1.3628220
0.5125000,0.5125000,0.5125000,-0.8408931,-0.0309488,-3.2931348,-0.8408931,-0.8179675,-1.3607371
0.5150000,0.5150000,0.5150000,-0.8370479,-0.0298132,-3.2443857,-0.8370479,-0.8093539,-1.3586616
0.5175000,0.5175000,0.5175000,-0.8324584,-0.0287243,-3.1963332,-0.8324584,-0.8001238,-1.3564927
0.5200000,0.5200000,0.5200000,-0.8271103,-0.0276847,-3.1489922,-0.8271103,-0.7903227,-1.3541453
0.5225000,0.5225000,0.5225000,-0.8210013,-0.0266966,-3.1023739,-0.8210013,-0.7800049,-1.3515498
0.5250000,0.5250000,0.5250000,-0.8141444,-0.0257605,-3.0564861,-0.8141444,-0.7692286,-1.3486482
0.5275000,0.5275000,0.5275000,-0.8065681,-0.0248756,-3.0113340,-0.8065681,-0.7580510,-1.3453902
0.5300000,0.5300000,0.5300000,-0.7983147,-0.0240403,-2.9669198,-0.7983147,-0.7465254,-1.3417295
0.5325000,0.5325000,0.5325000,-0.7894355,-0.0232522,-2.9232439,-0.7894355,-0.7346996,-1.3376219
0.5350000,0.5350000,0.5350000,-0.7799865,-0.0225091,-2.8803045,-0.7799865,-0.7226160,-1.3330231
0.5375000,0.5375000,0.5375000,-0.7700234,-0.0218086,-2.8380982,-0.7700234,-0.7103124,-1.3278868
0.5400000,0.5400000,0.5400000,-0.7595993,-0.0211490,-2.7966202,-0.7595993,-0.6978232,-1.3221643
0.5425000,0.5425000,0.5425000,-0.7487628,-0.0205290,-2.7558645,-0.7487628,-0.6851808,-1.3158042
0.5450000,0.5450000,0.5450000,-0.7375581,-0.0199477,-2.7158240,-0.7375581,-0.6724164,-1.3087542
0.5475000,0.5475000,0.5475000,-0.7260258,-0.0194043,-2.6764906,-0.7260258,-0.6595605,-1.3009647
0.5500000,0.5500000,0.5500000,-0.7142037,-0.0188979,-2.6378556,-0.7142037,-0.6466434,-1.2923926
0.5525000,0.5525000,0.5525000,-0.7021281,-0.0184278,-2.5999097,-0.7021281,-0.6336950,-1.2830059
0.5550000,0.5550000,0.5550000,-0.6898346,-0.0179926,-2.5626429,-0.6898346,-0.6207445,-1.2727873
0.5575000,0.5575000,0.5575000,-0.6773585,-0.0175912,-2.5260451,-0.6773585,-0.6078200,-1.2617361
0.5600000,0.5600000,0.5600000,-0.6647350,-0.0172218,-2.4901055,-0.6647350,-0.5949486,-1.2498671
0.5625000,0.5625000,0.5625000,-0.6519991,-0.0168825,-2.4548133,-0.6519991,-0.5821556,-1.2372092
0.5650000,0.5650000,0.5650000,-0.6391852,-0.0165713,-2.4201576,-0.6391852,-0.5694646,-1.2238016
0.5675000,0.5675000,0.5675000,-0.6263269,-0.0162860,-2.3861270,-0.6263269,-0.5568970,-1.2096904
0.5700000,0.5700000,0.5700000,-0.6134565,-0.0160245,-2.3527103,-0.6134565,-0.5444722,-1.1949250
0.5725000,0.5725000,0.5725000,-0.6006047,-0.0157845,-2.3198963,-0.6006047,-0.5322073,-1.1795565
0.5750000,0.5750000,0.5750000,-0.5878003,-0.0155639,-2.2876736,-0.5878003,-0.5201175,-1.1636354
0.5775000,0.5775000,0.5775000,-0.5750698,-0.0153607,-2.2560310,-0.5750698,-0.5082157,-1.1472115
0.5800000,0.5800000,0.5800000,-0.5624375,-0.0151729,-2.2249573,-0.5624375,-0.4965129,-1.1303335
0.5825000,0.5825000,0.5825000,-0.5499254,-0.0149988,-2.1944413,-0.5499254,-0.4850181,-1.1130496
0.5850000,0.5850000,0.5850000,-0.5375531,-0.0148366,-2.1644720,-0.5375531,-0.4737389,-1.0954071
0.5875000,0.5875000,0.5875000,-0.5253377,-0.0146849,-2.1350386,-0.5253377,-0.4626810,-1.0774534
0.5900000,0.5900000,0.5900000,-0.5132942,-0.0145423,-2.1061302,-0.5132942,-0.4518487,-1.0592355
0.5925000,0.5925000,0.5925000,-0.5014355,-0.0144076,-2.0777362,-0.5014355,-0.4412452,-1.0408002
0.5950000,0.5950000,0.5950000,-0.4897723,-0.0142797,-2.0498462,-0.4897723,-0.4308725,-1.0221935
0.5975000,0.5975000,0.5975000,-0.4783137,-0.0141576,-2.0224498,-0.4783137,-0.4207313,-1.0034610
0.6000000,0.6000000,0.6000000,-0.4670669,-0.0140404,-1.9955370,-0.4670669,-0.4108218,-0.9846467
0.6025000,0.6025000,0.6025000,-0.4560376,-0.0139275,-1.9690978,-0.4560376,-0.4011432,-0.9657931
0.6050000,0.6050000,0.6050000,-0.4452302,-0.0138182,-1.9431224,-0.4452302,-0.3916940,-0.9469406
0.6075000,0.6075000,0.6075000,-0.4346478,-0.0137119,-1.9176011,-0.4346478,-0.3824723,-0.9281277
0.6100000,0.6100000,0.6100000,-0.4242923,-0.0136082,-1.8925247,-0.4242923,-0.3734754,-0.9093899
0.6125000,0.6125000,0.6125000,-0.4141648,-0.0135066,-1.8678839,-0.4141648,-0.3647005,-0.8907604
0.6150000,0.6150000,0.6150000,-0.4042653,-0.0134067,-1.8436696,-0.4042653,-0.3561442,-0.8722693
0.6175000,0.6175000,0.6175000,-0.3945933,-0.0133084,-1.8198730,-0.3945933,-0.3478030,-0.8539442
0.6200000,0.6200000,0.6200000,-0.3851474,-0.0132112,-1.7964855,-0.3851474,-0.3396731,-0.8358096
0.6225000,0.6225000,0.6225000,-0.3759258,-0.0131151,-1.7734985,-0.3759258,-0.3317503,-0.8178875
0.6250000,0.6250000,0.6250000,-0.3669261,-0.0130197,-1.7509037,-0.3669261,-0.3240306,-0.8001970
0.6275000,0.6275000,0.6275000,-0.3581457,-0.0129251,-1.7286931,-0.3581457,-0.3165097,-0.7827549
0.6300000,0.6300000,0.6300000,-0.3495814,-0.0128310,-1.7068587,-0.3495814,-0.3091831,-0.7655757
0.6325000,0.6325000,0.6325000,-0.3412298,-0.0127373,-1.6853926,-0.3412298,-0.3020466,-0.7486713
0.6350000,0.6350000,0.6350000,-0.3330873,-0.0126440,-1.6642874,-0.3330873,-0.2950955,-0.7320519
0.6375000,0.6375000,0.6375000,-0.3251501,-0.0125511,-1.6435356,-0.3251501,-0.2883256,-0.7157257
0.6400000,0.6400000,0.6400000,-0.3174142,-0.0124584,-1.6231300,-0.3174142,-0.2817322,-0.6996991
0.6425000,0.6425000,0.6425000,-0.3098755,-0.0123659,-1.6030634,-0.3098755,-0.2753111,-0.6839772
0.6450000,0.6450000,0.6450000,-0.3025299,-0.0122736,-1.5833289,-0.3025299,-0.2690578,-0.6685634
0.6475000,0.6475000,0.6475000,-0.2953730,-0.0121816,-1.5639197,-0.2953730,-0.2629679,-0.6534599
0.6500000,0.6500000,0.6500000,-0.2884007,-0.0120897,-1.5448293,-0.2884007,-0.2570372,-0.6386679
0.6525000,0.6525000,0.6525000,-0.2816087,-0.0119980,-1.5260512,-0.2816087,-0.2512615,-0.6241876
0.6550000,0.6550000,0.6550000,-0.2749925,-0.0119064,-1.5075790,-0.2749925,-0.2456366,-0.6100180
0.6575000,0.6575000,0.6575000,-0.2685480,-0.0118151,-1.4894066,-0.2685480,-0.2401585,-0.5961577
0.6600000,0.6600000,0.6600000,-0.2622709,-0.0117240,-1.4715279,-0.2622709,-0.2348231,-0.5826046
0.6625000,0.6625000,0.6625000,-0.2561570,-0.0116331,-1.4539371,-0.2561570,-0.2296265,-0.5693556
0.6650000,0.6650000,0.6650000,-0.2502021,-0.0115424,-1.4366284,-0.2502021,-0.2245649,-0.5564076
0.6675000,0.6675000,0.6675000,-0.2444021,-0.0114520,-1.4195962,-0.2444021,-0.2196346,-0.5437568
0.6700000,0.6700000,0.6700000,-0.2387530,-0.0113618,-1.4028349,-0.2387530,-0.2148320,-0.5313990
0.6725000,0.6725000,0.6725000,-0.2332508,-0.0112719,-1.3863393,-0.2332508,-0.2101533,-0.5193298
0.6750000,0.6750000,0.6750000,-0.2278915,-0.0111823,-1.3701040,-0.2278915,-0.2055953,-0.5075446
0.6775000,0.6775000,0.6775000,-0.2226714,-0.0110930,-1.3541240,-0.2226714,-0.2011545,-0.4960383
0.6800000,0.6800000,0.6800000,-0.2175867,-0.0110041,-1.3383943,-0.2175867,-0.1968276,-0.4848059
0.6825000,0.6825000,0.6825000,-0.2126337,-0.0109155,-1.3229099,-0.2126337,-0.1926114,-0.4738423
0.6850000,0.6850000,0.6850000,-0.2078089,-0.0108273,-1.3076661,-0.2078089,-0.1885027,-0.4631419
0.6875000,0.6875000,0.6875000,-0.2031087,-0.0107395,-1.2926581,-0.2031087,-0.1844987,-0.4526996
0.6900000,0.6900000,0.6900000,-0.1985297,-0.0106521,-1.2778816,-0.1985297,-0.1805962,-0.4425099
0.6925000,0.6925000,0.6925000,-0.1940685,-0.0105652,-1.2633319,-0.1940685,-0.1767924,-0.4325672
0.6950000,0.6950000,0.6950000,-0.1897220,-0.0104786,-1.2490048,-0.1897220,-0.1730846,-0.4228661
0.6975000,0.6975000,0.6975000,-0.1854869,-0.0103926,-1.2348959,-0.1854869,-0.1694701,-0.4134013
0.7000000,0.7000000,0.7000000,-0.1813602,-0.0103070,-1.2210011,-0.1813602,-0.1659461,-0.4041672
0.7025000,0.7025000,0.7025000,-0.1773388,-0.0102219,-1.2073164,-0.1773388,-0.1625102,-0.3951584
0.7050000,0.7050000,0.7050000,-0.1734198,-0.0101373,-1.1938377,-0.1734198,-0.1591599,-0.3863698
0.7075000,0.7075000,0.7075000,-0.1696004,-0.0100533,-1.1805613,-0.1696004,-0.1558928,-0.3777959
0.7100000,0.7100000,0.7100000,-0.1658778,-0.0099697,-1.1674832,-0.1658778,-0.1527065,-0.3694316
0.7125000,0.7125000,0.7125000,-0.1622493,-0.0098867,-1.1545997,-0.1622493,-0.1495988,-0.3612717
0.7150000,0.7150000,0.7150000,-0.1587123,-0.0098043,-1.1419073,-0.1587123,-0.1465675,-0.3533113
0.7175000,0.7175000,0.7175000,-0.1552642,-0.0097224,-1.1294024,-0.1552642,-0.1436105,-0.3455453
0.7200000,0.7200000,0.7200000,-0.1519027,-0.0096411,-1.1170814,-0.1519027,-0.1407256,-0.3379689
0.7225000,0.7225000,0.7225000,-0.1486252,-0.0095603,-1.1049411,-0.1486252,-0.1379109,-0.3305773
0.7250000,0.7250000,0.7250000,-0.1454294,-0.0094802,-1.0929780,-0.1454294,-0.1351644,-0.3233659
0.7275000,0.7275000,0.7275000,-0.1423132,-0.0094006,-1.0811890,-0.1423132,-0.1324843,-0.3163300
0.7300000,0.7300000,0.7300000,-0.1392742,-0.0093217,-1.0695709,-0.1392742,-0.1298687,-0.3094653
0.7325000,0.7325000,0.7325000,-0.1363103,-0.0092433,-1.0581204,-0.1363103,-0.1273158,-0.3027672
0.7350000,0.7350000,0.7350000,-0.1334195,-0.0091655,-1.0468347,-0.1334195,-0.1248239,-0.2962315
0.7375000,0.7375000,0.7375000,-0.1305998,-0.0090884,-1.0357108,-0.1305998,-0.1223913,-0.2898540
0.7400000,0.7400000,0.7400000,-0.1278492,-0.0090119,-1.0247456,-0.1278492,-0.1200165,-0.2836307
0.7425000,0.7425000,0.7425000,-0.1251658,-0.0089359,-1.0139364,-0.1251658,-0.1176978,-0.2775576
0.7450000,0.7450000,0.7450000,-0.1225478,-0.0088606,-1.0032804,-0.1225478,-0.1154337,-0.2716307
0.7475000,0.7475000,0.7475000,-0.1199933,-0.0087860,-0.9927749,-0.1199933,-0.1132227,-0.2658462
0.7500000,0.7500000,0.7500000,-0.1175007,-0.0087119,-0.9824171,-0.1175007,-0.1110635,-0.2602005
0.7525000,0.7525000,0.7525000,-0.1150682,-0.0086385,-0.9722045,-0.1150682,-0.1089545,-0.2546900
0.7550000,0.7550000,0.7550000,-0.1126943,-0.0085657,-0.9621346,-0.1126943,-0.1068945,-0.2493111
0.7575000,0.7575000,0.7575000,-0.1103773,-0.0084936,-0.9522047,-0.1103773,-0.1048821,-0.2440604
0.7600000,0.7600000,0.7600000,-0.1081157,-0.0084220,-0.9424126,-0.1081157,-0.1029161,-0.2389346
0.7625000,0.7625000,0.7625000,-0.1059081,-0.0083511,-0.9327557,-0.1059081,-0.1009952,-0.2339304
0.7650000,0.7650000,0.7650000,-0.1037528,-0.0082808,-0.9232317,-0.1037528,-0.0991182,-0.2290447
0.7675000,0.7675000,0.7675000,-0.1016486,-0.0082112,-0.9138383,-0.1016486,-0.0972840,-0.2242743
0.7700000,0.7700000,0.7700000,-0.0995941,-0.0081421,-0.9045733,-0.0995941,-0.0954915,-0.2196164
0.7725000,0.7725000,0.7725000,-0.0975880,-0.0080737,-0.8954345,-0.0975880,-0.0937395,-0.2150680
0.7750000,0.7750000,0.7750000,-0.0956289,-0.0080060,-0.8864196,-0.0956289,-0.0920269,-0.2106262
0.7775000,0.7775000,0.7775000,-0.0937156,-0.0079388,-0.8775267,-0.0937156,-0.0903528,-0.2062882
0.7800000,0.7800000,0.7800000,-0.0918469,-0.0078722,-0.8687535,-0.0918469,-0.0887162,-0.2020515
0.7825000,0.7825000,0.7825000,-0.0900217,-0.0078063,-0.8600982,-0.0900217,-0.0871160,-0.1979134
0.7850000,0.7850000,0.7850000,-0.0882387,-0.0077410,-0.8515586,-0.0882387,-0.0855513,-0.1938713
0.7875000,0.7875000,0.7875000,-0.0864969,-0.0076763,-0.8431329,-0.0864969,-0.0840212,-0.1899227
0.7900000,0.7900000,0.7900000,-0.0847952,-0.0076122,-0.8348192,-0.0847952,-0.0825249,-0.1860654
0.7925000,0.7925000,0.7925000,-0.0831325,-0.0075486,-0.8266155,-0.0831325,-0.0810614,-0.1822968
0.7950000,0.7950000,0.7950000,-0.0815078,-0.0074857,-0.8185200,-0.0815078,-0.0796299,-0.1786148
0.7975000,0.7975000,0.7975000,-0.0799202,-0.0074234,-0.8105310,-0.0799202,-0.0782296,-0.1750172
0.8000000,0.8000000,0.8000000,-0.0783686,-0.0073617,-0.8026467,-0.0783686,-0.0768598,-0.1715017
0.8025000,0.8025000,0.8025000,-0.0768522,-0.0073006,-0.7948653,-0.0768522,-0.0755195,-0.1680663
0.8050000,0.8050000,0.8050000,-0.0753700,-0.0072400,-0.7871852,-0.0753700,-0.0742081,-0.1647090
0.8075000,0.8075000,0.8075000,-0.0739212,-0.0071801,-0.7796047,-0.0739212,-0.0729249,-0.1614277
0.8100000,0.8100000,0.8100000,-0.0725049,-0.0071207,-0.7721222,-0.0725049,-0.0716692,-0.1582206
0.8125000,0.8125000,0.8125000,-0.0711203,-0.0070619,-0.7647361,-0.0711203,-0.0704402,-0.1550857
0.8150000,0.8150000,0.8150000,-0.0697665,-0.0070036,-0.7574449,-0.0697665,-0.0692373,-0.1520214
0.8175000,0.8175000,0.8175000,-0.0684428,-0.0069459,-0.7502469,-0.0684428,-0.0680599,-0.1490256
0.8200000,0.8200000,0.8200000,-0.0671484,-0.0068888,-0.7431408,-0.0671484,-0.0669072,-0.1460969
0.8225000,0.8225000,0.8225000,-0.0658826,-0.0068322,-0.7361249,-0.0658826,-0.0657788,-0.1432334
0.8250000,0.8250000,0.8250000,-0.0646447,-0.0067762,-0.7291980,-0.0646447,-0.0646740,-0.1404336
0.8275000,0.8275000,0.8275000,-0.0634339,-0.0067208,-0.7223585,-0.0634339,-0.0635923,-0.1376958
0.8300000,0.8300000,0.8300000,-0.0622496,-0.0066658,-0.7156051,-0.0622496,-0.0625330,-0.1350186
0.8325000,0.8325000,0.8325000,-0.0610912,-0.0066114,-0.7089364,-0.0610912,-0.0614957,-0.1324004
0.8350000,0.8350000,0.8350000,-0.0599579,-0.0065576,-0.7023511,-0.0599579,-0.0604797,-0.1298397
0.8375000,0.8375000,0.8375000,-0.0588491,-0.0065042,-0.6958479,-0.0588491,-0.0594846,-0.1273352
0.8400000,0.8400000,0.8400000,-0.0577644,-0.0064514,-0.6894255,-0.0577644,-0.0585099,-0.1248854
0.8425000,0.8425000,0.8425000,-0.0567029,-0.0063991,-0.6830826,-0.0567029,-0.0575551,-0.1224891
0.8450000,0.8450000,0.8450000,-0.0556643,-0.0063473,-0.6768180,-0.0556643,-0.0566197,-0.1201448
0.8475000,0.8475000,0.8475000,-0.0546479,-0.0062961,-0.6706304,-0.0546479,-0.0557032,-0.1178514
0.8500000,0.8500000,0.8500000,-0.0536532,-0.0062453,-0.6645187,-0.0536532,-0.0548053,-0.1156076
0.8525000,0.8525000,0.8525000,-0.0526796,-0.0061950,-0.6584818,-0.0526796,-0.0539253,-0.1134121
0.8550000,0.8550000,0.8550000,-0.0517267,-0.0061452,-0.6525184,-0.0517267,-0.0530631,-0.1112639
0.8575000,0.8575000,0.8575000,-0.0507939,-0.0060959,-0.6466274,-0.0507939,-0.0522180,-0.1091617
0.8600000,0.8600000,0.8600000,-0.0498807,-0.0060471,-0.6408078,-0.0498807,-0.0513897,-0.1071045
0.8625000,0.8625000,0.8625000,-0.0489868,-0.0059988,-0.6350584,-0.0489868,-0.0505779,-0.1050911
0.8650000,0.8650000,0.8650000,-0.0481115,-0.0059510,-0.6293782,-0.0481115,-0.0497821,-0.1031206
0.8675000,0.8675000,0.8675000,-0.0472546,-0.0059036,-0.6237662,-0.0472546,-0.0490020,-0.1011919
0.8700000,0.8700000,0.8700000,-0.0464155,-0.0058567,-0.6182212,-0.0464155,-0.0482371,-0.0993039
0.8725000,0.8725000,0.8725000,-0.0455937,-0.0058102,-0.6127423,-0.0455937,-0.0474873,-0.0974558
0.8750000,0.8750000,0.8750000,-0.0447890,-0.0057642,-0.6073286,-0.0447890,-0.0467520,-0.0956466
0.8775000,0.8775000,0.8775000,-0.0440009,-0.0057187,-0.6019790,-0.0440009,-0.0460310,-0.0938754
0.8800000,0.8800000,0.8800000,-0.0432290,-0.0056736,-0.5966925,-0.0432290,-0.0453239,-0.0921412
0.8825000,0.8825000,0.8825000,-0.0424730,-0.0056289,-0.5914683,-0.0424730,-0.0446304,-0.0904431
0.8850000,0.8850000,0.8850000,-0.0417323,-0.0055847,-0.5863054,-0.0417323,-0.0439503,-0.0887805
0.8875000,0.8875000,0.8875000,-0.0410068,-0.0055409,-0.5812030,-0.0410068,-0.0432832,-0.0871523
0.8900000,0.8900000,0.8900000,-0.0402960,-0.0054976,-0.5761600,-0.0402960,-0.0426288,-0.0855578
0.8925000,0.8925000,0.8925000,-0.0395996,-0.0054546,-0.5711758,-0.0395996,-0.0419868,-0.0839963
0.8950000,0.8950000,0.8950000,-0.0389173,-0.0054121,-0.5662493,-0.0389173,-0.0413570,-0.0824669
0.8975000,0.8975000,0.8975000,-0.0382487,-0.0053700,-0.5613798,-0.0382487,-0.0407391,-0.0809689
0.9000000,0.9000000,0.9000000,-0.0375936,-0.0053284,-0.5565664,-0.0375936,-0.0401328,-0.0795016
0.9025000,0.9025000,0.9025000,-0.0369516,-0.0052871,-0.5518083,-0.0369516,-0.0395378,-0.0780643
0.9050000,0.9050000,0.9050000,-0.0363223,-0.0052462,-0.5471048,-0.0363223,-0.0389540,-0.0766562
0.9075000,0.9075000,0.9075000,-0.0357056,-0.0052057,-0.5424549,-0.0357056,-0.0383810,-0.0752768
0.9100000,0.9100000,0.9100000,-0.0351012,-0.0051657,-0.5378581,-0.0351012,-0.0378187,-0.0739253
0.9125000,0.9125000,0.9125000,-0.0345087,-0.0051260,-0.5333134,-0.0345087,-0.0372667,-0.0726011
0.9150000,0.9150000,0.9150000,-0.0339279,-0.0050867,-0.5288202,-0.0339279,-0.0367249,-0.0713036
0.9175000,0.9175000,0.9175000,-0.0333585,-0.0050477,-0.5243778,-0.0333585,-0.0361931,-0.0700322
0.9200000,0.9200000,0.9200000,-0.0328003,-0.0050092,-0.5199853,-0.0328003,-0.0356710,-0.0687863
0.9225000,0.9225000,0.9225000,-0.0322530,-0.0049710,-0.5156421,-0.0322530,-0.0351584,-0.0675653
0.9250000,0.9250000,0.9250000,-0.0317164,-0.0049332,-0.5113476,-0.0317164,-0.0346551,-0.0663687
0.9275000,0.9275000,0.9275000,-0.0311902,-0.0048958,-0.5071010,-0.0311902,-0.0341609,-0.0651959
0.9300000,0.9300000,0.9300000,-0.0306742,-0.0048587,-0.5029016,-0.0306742,-0.0336757,-0.0640463
0.9325000,0.9325000,0.9325000,-0.0301682,-0.0048220,-0.4987488,-0.0301682,-0.0331992,-0.0629196
0.9350000,0.9350000,0.9350000,-0.0296720,-0.0047856,-0.4946420,-0.0296720,-0.0327312,-0.0618150
0.9375000,0.9375000,0.9375000,-0.0291853,-0.0047496,-0.4905804,-0.0291853,-0.0322715,-0.0607322
0.9400000,0.9400000,0.9400000,-0.0287079,-0.0047139,-0.4865636,-0.0287079,-0.0318201,-0.0596707
0.9425000,0.9425000,0.9425000,-0.0282397,-0.0046786,-0.4825908,-0.0282397,-0.0313767,-0.0586300
0.9450000,0.9450000,0.9450000,-0.0277804,-0.0046436,-0.4786614,-0.0277804,-0.0309411,-0.0576097
0.9475000,0.9475000,0.9475000,-0.0273298,-0.0046089,-0.4747749,-0.0273298,-0.0305131,-0.0566092
0.9500000,0.9500000,0.9500000,-0.0268877,-0.0045746,-0.4709307,-0.0268877,-0.0300927,-0.0556282
0.9525000,0.9525000,0.9525000,-0.0264541,-0.0045406,-0.4671281,-0.0264541,-0.0296797,-0.0546662
0.9550000,0.9550000,0.9550000,-0.0260286,-0.0045069,-0.4633667,-0.0260286,-0.0292738,-0.0537228
0.9575000,0.9575000,0.9575000,-0.0256110,-0.0044736,-0.4596459,-0.0256110,-0.0288751,-0.0527977
0.9600000,0.9600000,0.9600000,-0.0252014,-0.0044405,-0.4559651,-0.0252014,-0.0284832,-0.0518903
0.9625000,0.9625000,0.9625000,-0.0247993,-0.0044078,-0.4523237,-0.0247993,-0.0280981,-0.0510004
0.9650000,0.9650000,0.9650000,-0.0244048,-0.0043754,-0.4487213,-0.0244048,-0.0277196,-0.0501276
0.9675000,0.9675000,0.9675000,-0.0240176,-0.0043433,-0.4451573,-0.0240176,-0.0273476,-0.0492714
0.9700000,0.9700000,0.9700000,-0.0236376,-0.0043114,-0.4416312,-0.0236376,-0.0269820,-0.0484315
0.9725000,0.9725000,0.9725000,-0.0232646,-0.0042799,-0.4381425,-0.0232646,-0.0266226,-0.0476076
0.9750000,0.9750000,0.9750000,-0.0228985,-0.0042487,-0.4346907,-0.0228985,-0.0262694,-0.0467994
0.9775000,0.9775000,0.9775000,-0.0225392,-0.0042178,-0.4312754,-0.0225392,-0.0259221,-0.0460064
0.9800000,0.9800000,0.9800000,-0.0221864,-0.0041872,-0.4278959,-0.0221864,-0.0255806,-0.0452285
0.9825000,0.9825000,0.9825000,-0.0218401,-0.0041568,-0.4245520,-0.0218401,-0.0252449,-0.0444651
0.9850000,0.9850000,0.9850000,-0.0215001,-0.0041268,-0.4212430,-0.0215001,-0.0249149,-0.0437162
0.9875000,0.9875000,0.9875000,-0.0211663,-0.0040970,-0.4179685,-0.0211663,-0.0245903,-0.0429812
0.9900000,0.9900000,0.9900000,-0.0208385,-0.0040675,-0.4147281,-0.0208385,-0.0242712,-0.0422600
0.9925000,0.9925000,0.9925000,-0.0205167,-0.0040383,-0.4115214,-0.0205167,-0.0239574,-0.0415523
0.9950000,0.9950000,0.9950000,-0.0202006,-0.0040093,-0.4083478,-0.0202006,-0.0236487,-0.0408577
0.9975000,0.9975000,0.9975000,-0.0198903,-0.0039806,-0.4052070,-0.0198903,-0.0233452,-0.0401761
1.0000000,1.0000000,1.0000000,-0.0195856,-0.0039522,-0.4020985,-0.0195856,-0.0230466,-0.0395070
1.0025000,1.0025000,1.0025000,-0.0192863,-0.0039241,-0.3990220,-0.0192863,-0.0227530,-0.0388503
1.0050000,1.0050000,1.0050000,-0.0189923,-0.0038962,-0.3959770,-0.0189923,-0.0224641,-0.0382058
1.0075000,1.0075000,1.0075000,-0.0187036,-0.0038685,-0.3929630,-0.0187036,-0.0221800,-0.0375731
1.0100000,1.0100000,1.0100000,-0.0184200,-0.0038411,-0.3899798,-0.0184200,-0.0219004,-0.0369520
1.0125000,1.0125000,1.0125000,-0.0181414,-0.0038140,-0.3870269,-0.0181414,-0.0216254,-0.0363423
1.0150000,1.0150000,1.0150000,-0.0178678,-0.0037871,-0.3841039,-0.0178678,-0.0213548,-0.0357437
1.0175000,1.0175000,1.0175000,-0.0175990,-0.0037605,-0.3812105,-0.0175990,-0.0210886,-0.0351560
1.0200000,1.0200000,1.0200000,-0.0173349,-0.0037341,-0.3783462,-0.0173349,-0.0208266,-0.0345791
1.0225000,1.0225000,1.0225000,-0.0170754,-0.0037079,-0.3755108,-0.0170754,-0.0205688,-0.0340125
1.0250000,1.0250000,1.0250000,-0.0168205,-0.0036820,-0.3727038,-0.0168205,-0.0203152,-0.0334563
1.0275000,1.0275000,1.0275000,-0.0165700,-0.0036563,-0.3699248,-0.0165700,-0.0200655,-0.0329101
1.0300000,1.0300000,1.0300000,-0.0163239,-0.0036308,-0.3671736,-0.0163239,-0.0198198,-0.0323737
1.0325000,1.0325000,1.0325000,-0.0160821,-0.0036056,-0.3644498,-0.0160821,-0.0195780,-0.0318470
1.0350000,1.0350000,1.0350000,-0.0158444,-0.0035806,-0.3617530,-0.0158444,-0.0193400,-0.0313298
1.0375000,1.0375000,1.0375000,-0.0156108,-0.0035559,-0.3590829,-0.0156108,-0.0191057,-0.0308218
1.0400000,1.0400000,1.0400000,-0.0153813,-0.0035313,-0.3564392,-0.0153813,-0.0188751,-0.0303228
1.0425000,1.0425000,1.0425000,-0.0151557,-0.0035070,-0.3538215,-0.0151557,-0.0186481,-0.0298328
1.0450000,1.0450000,1.0450000,-0.0149340,-0.0034829,-0.3512296,-0.0149340,-0.0184246,-0.0293515
1.0475000,1.0475000,1.0475000,-0.0147161,-0.0034590,-0.3486630,-0.0147161,-0.0182045,-0.0288787
1.0500000,1.0500000,1.0500000,-0.0145019,-0.0034353,-0.3461216,-0.0145019,-0.0179879,-0.0284143
1.0525000,1.0525000,1.0525000,-0.0142913,-0.0034118,-0.3436049,-0.0142913,-0.0177746,-0.0279581
1.0550000,1.0550000,1.0550000,-0.0140843,-0.0033886,-0.3411127,-0.0140843,-0.0175646,-0.0275099
1.0575000,1.0575000,1.0575000,-0.0138808,-0.0033655,-0.3386447,-0.0138808,-0.0173577,-0.0270697
1.0600000,1.0600000,1.0600000,-0.0136807,-0.0033427,-0.3362006,-0.0136807,-0.0171541,-0.0266371
1.0625000,1.0625000,1.0625000,-0.0134840,-0.0033200,-0.3337801,-0.0134840,-0.0169535,-0.0262121
1.0650000,1.0650000,1.0650000,-0.0132907,-0.0032976,-0.3313829,-0.0132907,-0.0167559,-0.0257946
1.0675000,1.0675000,1.0675000,-0.0131005,-0.0032754,-0.3290087,-0.0131005,-0.0165614,-0.0253843
1.0700000,1.0700000,1.0700000,-0.0129135,-0.0032533,-0.3266573,-0.0129135,-0.0163698,-0.0249812
1.0725000,1.0725000,1.0725000,-0.0127297,-0.0032314,-0.3243284,-0.0127297,-0.0161810,-0.0245851
1.0750000,1.0750000,1.0750000,-0.0125489,-0.0032098,-0.3220217,-0.0125489,-0.0159951,-0.0241958
1.0775000,1.0775000,1.0775000,-0.0123711,-0.0031883,-0.3197369,-0.0123711,-0.0158119,-0.0238133
1.0800000,1.0800000,1.0800000,-0.0121963,-0.0031670,-0.3174738,-0.0121963,-0.0156315,-0.0234374
1.0825000,1.0825000,1.0825000,-0.0120243,-0.0031459,-0.3152321,-0.0120243,-0.0154538,-0.0230680
1.0850000,1.0850000,1.0850000,-0.0118552,-0.0031250,-0.3130116,-0.0118552,-0.0152786,-0.0227049
1.0875000,1.0875000,1.0875000,-0.0116888,-0.0031043,-0.3108120,-0.0116888,-0.0151061,-0.0223480
1.0900000,1.0900000,1.0900000,-0.0115252,-0.0030837,-0.3086331,-0.0115252,-0.0149361,-0.0219973
1.0925000,1.0925000,1.0925000,-0.0113642,-0.0030633,-0.3064747,-0.0113642,-0.0147686,-0.0216525
1.0950000,1.0950000,1.0950000,-0.0112059,-0.0030431,-0.3043364,-0.0112059,-0.0146035,-0.0213136
1.0975000,1.0975000,1.0975000,-0.0110502,-0.0030231,-0.3022181,-0.0110502,-0.0144408,-0.0209805
1.1000000,1.1000000,1.1000000,-0.0108970,-0.0030032,-0.3001194,-0.0108970,-0.0142805,-0.0206530
1.1025000,1.1025000,1.1025000,-0.0107462,-0.0029836,-0.2980403,-0.0107462,-0.0141225,-0.0203311
1.1050000,1.1050000,1.1050000,-0.0105979,-0.0029640,-0.2959805,-0.0105979,-0.0139668,-0.0200146
1.1075000,1.1075000,1.1075000,-0.0104520,-0.0029447,-0.2939396,-0.0104520,-0.0138134,-0.0197035
1.1100000,1.1100000,1.1100000,-0.0103085,-0.0029255,-0.2919176,-0.0103085,-0.0136621,-0.0193976
1.1125000,1.1125000,1.1125000,-0.0101672,-0.0029065,-0.2899142,-0.0101672,-0.0135130,-0.0190968
1.1150000,1.1150000,1.1150000,-0.0100282,-0.0028876,-0.2879292,-0.0100282,-0.0133660,-0.0188011
1.1175000,1.1175000,1.1175000,-0.0098914,-0.0028689,-0.2859624,-0.0098914,-0.0132211,-0.0185104
1.1200000,1.1200000,1.1200000,-0.0097568,-0.0028504,-0.2840135,-0.0097568,-0.0130783,-0.0182245
1.1225000,1.1225000,1.1225000,-0.0096244,-0.0028320,-0.2820824,-0.0096244,-0.0129375,-0.0179433
1.1250000,1.1250000,1.1250000,-0.0094940,-0.0028138,-0.2801688,-0.0094940,-0.0127987,-0.0176669
1.1275000,1.1275000,1.1275000,-0.0093657,-0.0027957,-0.2782726,-0.0093657,-0.0126618,-0.0173950
1.1300000,1.1300000,1.1300000,-0.0092394,-0.0027778,-0.2763936,-0.0092394,-0.0125268,-0.0171277
1.1325000,1.1325000,1.1325000,-0.0091152,-0.0027600,-0.2745315,-0.0091152,-0.0123937,-0.0168648
1.1350000,1.1350000,1.1350000,-0.0089928,-0.0027424,-0.2726862,-0.0089928,-0.0122625,-0.0166062
1.1375000,1.1375000,1.1375000,-0.0088724,-0.0027249,-0.2708575,-0.0088724,-0.0121331,-0.0163518
1.1400000,1.1400000,1.1400000,-0.0087539,-0.0027076,-0.2690451,-0.0087539,-0.0120055,-0.0161017
1.1425000,1.1425000,1.1425000,-0.0086372,-0.0026904,-0.2672490,-0.0086372,-0.0118797,-0.0158557
1.1450000,1.1450000,1.1450000,-0.0085224,-0.0026734,-0.2654689,-0.0085224,-0.0117555,-0.0156137
1.1475000,1.1475000,1.1475000,-0.0084093,-0.0026565,-0.2637047,-0.0084093,-0.0116331,-0.0153757
1.1500000,1.1500000,1.1500000,-0.0082980,-0.0026397,-0.2619561,-0.0082980,-0.0115124,-0.0151415
1.1525000,1.1525000,1.1525000,-0.0081883,-0.0026231,-0.2602231,-0.0081883,-0.0113933,-0.0149112
1.1550000,1.1550000,1.1550000,-0.0080804,-0.0026066,-0.2585054,-0.0080804,-0.0112758,-0.0146846
1.1575000,1.1575000,1.1575000,-0.0079742,-0.0025903,-0.2568028,-0.0079742,-0.0111599,-0.0144617
1.1600000,1.1600000,1.1600000,-0.0078696,-0.0025741,-0.2551152,-0.0078696,-0.0110456,-0.0142424
1.1625000,1.1625000,1.1625000,-0.0077665,-0.0025580,-0.2534424,-0.0077665,-0.0109328,-0.0140266
1.1650000,1.1650000,1.1650000,-0.0076651,-0.0025421,-0.2517844,-0.0076651,-0.0108216,-0.0138144
1.1675000,1.1675000,1.1675000,-0.0075652,-0.0025263,-0.2501408,-0.0075652,-0.0107118,-0.0136055
1.1700000,1.1700000,1.1700000,-0.0074668,-0.0025106,-0.2485115,-0.0074668,-0.0106035,-0.0134001
1.1725000,1.1725000,1.1725000,-0.0073699,-0.0024950,-0.2468964,-0.0073699,-0.0104966,-0.0131979
1.1750000,1.1750000,1.1750000,-0.0072745,-0.0024796,-0.2452954,-0.0072745,-0.0103912,-0.0129990
1.1775000,1.1775000,1.1775000,-0.0071806,-0.0024643,-0.2437082,-0.0071806,-0.0102872,-0.0128032
1.1800000,1.1800000,1.1800000,-0.0070880,-0.0024491,-0.2421348,-0.0070880,-0.0101845,-0.0126106
1.1825000,1.1825000,1.1825000,-0.0069969,-0.0024340,-0.2405749,-0.0069969,-0.0100832,-0.0124210
1.1850000,1.1850000,1.1850000,-0.0069071,-0.0024191,-0.2390285,-0.0069071,-0.0099832,-0.0122345
1.1875000,1.1875000,1.1875000,-0.0068186,-0.0024043,-0.2374954,-0.0068186,-0.0098845,-0.0120509
1.1900000,1.1900000,1.1900000,-0.0067315,-0.0023896,-0.2359754,-0.0067315,-0.0097872,-0.0118703
1.1925000,1.1925000,1.1925000,-0.0066457,-0.0023750,-0.2344684,-0.0066457,-0.0096910,-0.0116925
1.1950000,1.1950000,1.1950000,-0.0065611,-0.0023606,-0.2329742,-0.0065611,-0.0095962,-0.0115175
1.1975000,1.1975000,1.1975000,-0.0064778,-0.0023462,-0.2314928,-0.0064778,-0.0095025,-0.0113453
1.2000000,1.2000000,1.2000000,-0.0063958,-0.0023320,-0.2300240,-0.0063958,-0.0094101,-0.0111758
1.2025000,1.2025000,1.2025000,-0.0063150,-0.0023179,-0.2285676,-0.0063150,-0.0093189,-0.0110089
1.2050000,1.2050000,1.2050000,-0.0062353,-0.0023039,-0.2271236,-0.0062353,-0.0092288,-0.0108447
1.2075000,1.2075000,1.2075000,-0.0061568,-0.0022900,-0.2256918,-0.0061568,-0.0091399,-0.0106830
1.2100000,1.2100000,1.2100000,-0.0060795,-0.0022762,-0.2242720,-0.0060795,-0.0090521,-0.0105239
1.2125000,1.2125000,1.2125000,-0.0060033,-0.0022625,-0.2228641,-0.0060033,-0.0089654,-0.0103673
1.2150000,1.2150000,1.2150000,-0.0059283,-0.0022490,-0.2214681,-0.0059283,-0.0088799,-0.0102131
1.2175000,1.2175000,1.2175000,-0.0058543,-0.0022355,-0.2200837,-0.0058543,-0.0087954,-0.0100613
1.2200000,1.2200000,1.2200000,-0.0057814,-0.0022222,-0.2187109,-0.0057814,-0.0087120,-0.0099119
1.2225000,1.2225000,1.2225000,-0.0057095,-0.0022089,-0.2173496,-0.0057095,-0.0086296,-0.0097648
1.2250000,1.2250000,1.2250000,-0.0056387,-0.0021958,-0.2159996,-0.0056387,-0.0085483,-0.0096199
1.2275000,1.2275000,1.2275000,-0.0055690,-0.0021827,-0.2146607,-0.0055690,-0.0084680,-0.0094773
1.2300000,1.2300000,1.2300000,-0.0055002,-0.0021698,-0.2133330,-0.0055002,-0.0083887,-0.0093369
1.2325000,1.2325000,1.2325000,-0.0054324,-0.0021570,-0.2120162,-0.0054324,-0.0083104,-0.0091987
1.2350000,1.2350000,1.2350000,-0.0053656,-0.0021442,-0.2107103,-0.0053656,-0.0082330,-0.0090626
1.2375000,1.2375000,1.2375000,-0.0052998,-0.0021316,-0.2094152,-0.0052998,-0.0081566,-0.0089286
1.2400000,1.2400000,1.2400000,-0.0052349,-0.0021190,-0.2081307,-0.0052349,-0.0080812,-0.0087967
1.2425000,1.2425000,1.2425000,-0.0051709,-0.0021066,-0.2068567,-0.0051709,-0.0080067,-0.0086667
1.2450000,1.2450000,1.2450000,-0.0051079,-0.0020943,-0.2055931,-0.0051079,-0.0079331,-0.0085388
1.2475000,1.2475000,1.2475000,-0.0050457,-0.0020820,-0.2043399,-0.0050457,-0.0078604,-0.0084128
1.2500000,1.2500000,1.2500000,-0.0049845,-0.0020699,-0.2030968,-0.0049845,-0.0077886,-0.0082887
1.2525000,1.2525000,1.2525000,-0.0049241,-0.0020578,-0.2018639,-0.0049241,-0.0077176,-0.0081665
1.2550000,1.2550000,1.2550000,-0.0048645,-0.0020458,-0.2006409,-0.0048645,-0.0076476,-0.0080462
1.2575000,1.2575000,1.2575000,-0.0048058,-0.0020339,-0.1994279,-0.0048058,-0.0075783,-0.0079277
1.2600000,1.2600000,1.2600000,-0.0047479,-0.0020222,-0.1982246,-0.0047479,-0.0075099,-0.0078110
1.2625000,1.2625000,1.2625000,-0.0046909,-0.0020105,-0.1970311,-0.0046909,-0.0074424,-0.0076961
1.2650000,1.2650000,1.2650000,-0.0046346,-0.0019989,-0.1958471,-0.0046346,-0.0073756,-0.0075829
1.2675000,1.2675000,1.2675000,-0.0045791,-0.0019873,-0.1946727,-0.0045791,-0.0073097,-0.0074714
1.2700000,1.2700000,1.2700000,-0.0045244,-0.0019759,-0.1935076,-0.0045244,-0.0072445,-0.0073616
1.2725000,1.2725000,1.2725000,-0.0044705,-0.0019646,-0.1923519,-0.0044705,-0.0071801,-0.0072534
1.2750000,1.2750000,1.2750000,-0.0044173,-0.0019533,-0.1912054,-0.0044173,-0.0071165,-0.0071469
1.2775000,1.2775000,1.2775000,-0.0043648,-0.0019421,-0.1900680,-0.0043648,-0.0070536,-0.0070419
1.2800000,1.2800000,1.2800000,-0.0043131,-0.0019310,-0.1889397,-0.0043131,-0.0069915,-0.0069386
1.2825000,1.2825000,1.2825000,-0.0042621,-0.0019200,-0.1878203,-0.0042621,-0.0069301,-0.0068368
1.2850000,1.2850000,1.2850000,-0.0042118,-0.0019091,-0.1867098,-0.0042118,-0.0068694,-0.0067364
1.2875000,1.2875000,1.2875000,-0.0041622,-0.0018983,-0.1856080,-0.0041622,-0.0068095,-0.0066376
1.2900000,1.2900000,1.2900000,-0.0041133,-0.0018875,-0.1845150,-0.0041133,-0.0067502,-0.0065403
1.2925000,1.2925000,1.2925000,-0.0040650,-0.0018768,-0.1834305,-0.0040650,-0.0066916,-0.0064444
1.2950000,1.2950000,1.2950000,-0.0040174,-0.0018662,-0.1823545,-0.0040174,-0.0066337,-0.0063499
1.2975000,1.2975000,1.2975000,-0.0039705,-0.0018557,-0.1812870,-0.0039705,-0.0065765,-0.0062569
1.3000000,1.3000000,1.3000000,-0.0039241,-0.0018453,-0.1802278,-0.0039241,-0.0065200,-0.0061652
1.3025000,1.3025000,1.3025000,-0.0038785,-0.0018349,-0.1791769,-0.0038785,-0.0064641,-0.0060748
1.3050000,1.3050000,1.3050000,-0.0038334,-0.0018246,-0.1781342,-0.0038334,-0.0064088,-0.0059858
1.3075000,1.3075000,1.3075000,-0.0037890,-0.0018144,-0.1770996,-0.0037890,-0.0063542,-0.0058981
1.3100000,1.3100000,1.3100000,-0.0037451,-0.0018043,-0.1760730,-0.0037451,-0.0063002,-0.0058117
1.3125000,1.3125000,1.3125000,-0.0037019,-0.0017942,-0.1750543,-0.0037019,-0.0062468,-0.0057266
1.3150000,1.3150000,1.3150000,-0.0036592,-0.0017842,-0.1740435,-0.0036592,-0.0061940,-0.0056427
1.3175000,1.3175000,1.3175000,-0.0036171,-0.0017743,-0.1730406,-0.0036171,-0.0061418,-0.0055601
1.3200000,1.3200000,1.3200000,-0.0035756,-0.0017645,-0.1720453,-0.0035756,-0.0060902,-0.0054786
1.3225000,1.3225000,1.3225000,-0.0035346,-0.0017547,-0.1710577,-0.0035346,-0.0060392,-0.0053984
1.3250000,1.3250000,1.3250000,-0.0034942,-0.0017450,-0.1700776,-0.0034942,-0.0059888,-0.0053193
1.3275000,1.3275000,1.3275000,-0.0034543,-0.0017354,-0.1691051,-0.0034543,-0.0059389,-0.0052413
1.3300000,1.3300000,1.3300000,-0.0034150,-0.0017258,-0.1681400,-0.0034150,-0.0058896,-0.0051646
1.3325000,1.3325000,1.3325000,-0.0033761,-0.0017164,-0.1671822,-0.0033761,-0.0058409,-0.0050889
1.3350000,1.3350000,1.3350000,-0.0033378,-0.0017069,-0.1662317,-0.0033378,-0.0057927,-0.0050143
1.3375000,1.3375000,1.3375000,-0.0033000,-0.0016976,-0.1652885,-0.0033000,-0.0057450,-0.0049408
1.3400000,1.3400000,1.3400000,-0.0032627,-0.0016883,-0.1643524,-0.0032627,-0.0056979,-0.0048684
1.3425000,1.3425000,1.3425000,-0.0032259,-0.0016791,-0.1634233,-0.0032259,-0.0056512,-0.0047970
1.3450000,1.3450000,1.3450000,-0.0031896,-0.0016699,-0.1625013,-0.0031896,-0.0056051,-0.0047266
1.3475000,1.3475000,1.3475000,-0.0031537,-0.0016609,-0.1615862,-0.0031537,-0.0055595,-0.0046573
1.3500000,1.3500000,1.3500000,-0.0031183,-0.0016518,-0.1606781,-0.0031183,-0.0055144,-0.0045889
1.3525000,1.3525000,1.3525000,-0.0030834,-0.0016429,-0.1597767,-0.0030834,-0.0054698,-0.0045216
1.3550000,1.3550000,1.3550000,-0.0030490,-0.0016340,-0.1588821,-0.0030490,-0.0054257,-0.0044552
1.3575000,1.3575000,1.3575000,-0.0030150,-0.0016252,-0.1579941,-0.0030150,-0.0053820,-0.0043897
1.3600000,1.3600000,1.3600000,-0.0029814,-0.0016164,-0.1571128,-0.0029814,-0.0053389,-0.0043252
1.3625000,1.3625000,1.3625000,-0.0029483,-0.0016077,-0.1562381,-0.0029483,-0.0052962,-0.0042616
1.3650000,1.3650000,1.3650000,-0.0029155,-0.0015991,-0.1553699,-0.0029155,-0.0052539,-0.0041990
1.3675000,1.3675000,1.3675000,-0.0028833,-0.0015905,-0.1545081,-0.0028833,-0.0052122,-0.0041372
1.3700000,1.3700000,1.3700000,-0.0028514,-0.0015820,-0.1536527,-0.0028514,-0.0051708,-0.0040763
1.3725000,1.3725000,1.3725000,-0.0028200,-0.0015735,-0.1528036,-0.0028200,-0.0051299,-0.0040163
1.3750000,1.3750000,1.3750000,-0.0027889,-0.0015651,-0.1519608,-0.0027889,-0.0050895,-0.0039571
1.3775000,1.3775000,1.3775000,-0.0027583,-0.0015568,-0.1511242,-0.0027583,-0.0050495,-0.0038988
1.3800000,1.3800000,1.3800000,-0.0027280,-0.0015485,-0.1502937,-0.0027280,-0.0050099,-0.0038413
1.3825000,1.3825000,1.3825000,-0.0026981,-0.0015403,-0.1494693,-0.0026981,-0.0049707,-0.0037846
1.3850000,1.3850000,1.3850000,-0.0026687,-0.0015321,-0.1486510,-0.0026687,-0.0049319,-0.0037287
1.3875000,1.3875000,1.3875000,-0.0026395,-0.0015240,-0.1478386,-0.0026395,-0.0048936,-0.0036736
1.3900000,1.3900000,1.3900000,-0.0026108,-0.0015160,-0.1470322,-0.0026108,-0.0048556,-0.0036193
1.3925000,1.3925000,1.3925000,-0.0025824,-0.0015080,-0.1462317,-0.0025824,-0.0048181,-0.0035657
1.3950000,1.3950000,1.3950000,-0.0025544,-0.0015001,-0.1454370,-0.0025544,-0.0047809,-0.0035129
1.3975000,1.3975000,1.3975000,-0.0025268,-0.0014922,-0.1446480,-0.0025268,-0.0047442,-0.0034609
1.4000000,1.4000000,1.4000000,-0.0024995,-0.0014844,-0.1438648,-0.0024995,-0.0047078,-0.0034095
1.4025000,1.4025000,1.4025000,-0.0024725,-0.0014766,-0.1430872,-0.0024725,-0.0046718,-0.0033589
1.4050000,1.4050000,1.4050000,-0.0024459,-0.0014689,-0.1423152,-0.0024459,-0.0046361,-0.0033091
1.4075000,1.4075000,1.4075000,-0.0024196,-0.0014612,-0.1415488,-0.0024196,-0.0046009,-0.0032599
1.4100000,1.4100000,1.4100000,-0.0023936,-0.0014536,-0.1407879,-0.0023936,-0.0045660,-0.0032114
1.4125000,1.4125000,1.4125000,-0.0023680,-0.0014460,-0.1400325,-0.0023680,-0.0045314,-0.0031635
1.4150000,1.4150000,1.4150000,-0.0023427,-0.0014385,-0.1392824,-0.0023427,-0.0044972,-0.0031164
1.4175000,1.4175000,1.4175000,-0.0023177,-0.0014311,-0.1385378,-0.0023177,-0.0044634,-0.0030699
1.4200000,1.4200000,1.4200000,-0.0022930,-0.0014237,-0.1377984,-0.0022930,-0.0044299,-0.0030240
1.4225000,1.4225000,1.4225000,-0.0022686,-0.0014163,-0.1370643,-0.0022686,-0.0043968,-0.0029788
1.4250000,1.4250000,1.4250000,-0.0022445,-0.0014090,-0.1363355,-0.0022445,-0.0043640,-0.0029342
1.4275000,1.4275000,1.4275000,-0.0022207,-0.0014018,-0.1356118,-0.0022207,-0.0043315,-0.0028903
1.4300000,1.4300000,1.4300000,-0.0021972,-0.0013946,-0.1348932,-0.0021972,-0.0042993,-0.0028469
1.4325000,1.4325000,1.4325000,-0.0021740,-0.0013874,-0.1341798,-0.0021740,-0.0042675,-0.0028042
1.4350000,1.4350000,1.4350000,-0.0021511,-0.0013803,-0.1334713,-0.0021511,-0.0042360,-0.0027620
1.4375000,1.4375000,1.4375000,-0.0021285,-0.0013733,-0.1327679,-0.0021285,-0.0042048,-0.0027204
1.4400000,1.4400000,1.4400000,-0.0021062,-0.0013662,-0.1320694,-0.0021062,-0.0041739,-0.0026794
1.4425000,1.4425000,1.4425000,-0.0020841,-0.0013593,-0.1313758,-0.0020841,-0.0041434,-0.0026390
1.4450000,1.4450000,1.4450000,-0.0020623,-0.0013524,-0.1306871,-0.0020623,-0.0041131,-0.0025991
1.4475000,1.4475000,1.4475000,-0.0020407,-0.0013455,-0.1300032,-0.0020407,-0.0040831,-0.0025598
1.4500000,1.4500000,1.4500000,-0.0020194,-0.0013387,-0.1293241,-0.0020194,-0.0040535,-0.0025210
1.4525000,1.4525000,1.4525000,-0.0019984,-0.0013319,-0.1286497,-0.0019984,-0.0040241,-0.0024828
1.4550000,1.4550000,1.4550000,-0.0019777,-0.0013252,-0.1279800,-0.0019777,-0.0039950,-0.0024451
1.4575000,1.4575000,1.4575000,-0.0019572,-0.0013185,-0.1273150,-0.0019572,-0.0039662,-0.0024078
1.4600000,1.4600000,1.4600000,-0.0019369,-0.0013118,-0.1266545,-0.0019369,-0.0039377,-0.0023711
1.4625000,1.4625000,1.4625000,-0.0019169,-0.0013052,-0.1259987,-0.0019169,-0.0039095,-0.0023350
1.4650000,1.4650000,1.4650000,-0.0018971,-0.0012987,-0.1253474,-0.0018971,-0.0038815,-0.0022993
1.4675000,1.4675000,1.4675000,-0.0018776,-0.0012922,-0.1247005,-0.0018776,-0.0038538,-0.0022641
1.4700000,1.4700000,1.4700000,-0.0018582,-0.0012857,-0.1240582,-0.0018582,-0.0038264,-0.0022293
1.4725000,1.4725000,1.4725000,-0.0018392,-0.0012793,-0.1234202,-0.0018392,-0.0037993,-0.0021951
1.4750000,1.4750000,1.4750000,-0.0018203,-0.0012729,-0.1227867,-0.0018203,-0.0037724,-0.0021613
1.4775000,1.4775000,1.4775000,-0.0018017,-0.0012666,-0.1221574,-0.0018017,-0.0037458,-0.0021280
1.4800000,1.4800000,1.4800000,-0.0017833,-0.0012603,-0.1215325,-0.0017833,-0.0037194,-0.0020951
1.4825000,1.4825000,1.4825000,-0.0017651,-0.0012540,-0.1209118,-0.0017651,-0.0036933,-0.0020627
1.4850000,1.4850000,1.4850000,-0.0017472,-0.0012478,-0.1202954,-0.0017472,-0.0036674,-0.0020307
1.4875000,1.4875000,1.4875000,-0.0017294,-0.0012416,-0.1196832,-0.0017294,-0.0036418,-0.0019991
1.4900000,1.4900000,1.4900000,-0.0017119,-0.0012355,-0.1190751,-0.0017119,-0.0036164,-0.0019680
1.4925000,1.4925000,1.4925000,-0.0016946,-0.0012294,-0.1184712,-0.0016946,-0.0035913,-0.0019373
1.4950000,1.4950000,1.4950000,-0.0016774,-0.0012233,-0.1178713,-0.0016774,-0.0035664,-0.0019070
1.4975000,1.4975000,1.4975000,-0.0016605,-0.0012173,-0.1172755,-0.0016605,-0.0035418,-0.0018772
1.5000000,1.5000000,1.5000000,-0.0016438,-0.0012113,-0.1166837,-0.0016438,-0.0035173,-0.0018477
1.5025000,1.5025000,1.5025000,-0.0016273,-0.0012054,-0.1160959,-0.0016273,-0.0034931,-0.0018186
1.5050000,1.5050000,1.5050000,-0.0016109,-0.0011995,-0.1155121,-0.0016109,-0.0034692,-0.0017900
1.5075000,1.5075000,1.5075000,-0.0015948,-0.0011937,-0.1149321,-0.0015948,-0.0034454,-0.0017617
1.5100000,1.5100000,1.5100000,-0.0015788,-0.0011878,-0.1143561,-0.0015788,-0.0034219,-0.0017338
1.5125000,1.5125000,1.5125000,-0.0015631,-0.0011821,-0.1137839,-0.0015631,-0.0033986,-0.0017062
1.5150000,1.5150000,1.5150000,-0.0015475,-0.0011763,-0.1132155,-0.0015475,-0.0033755,-0.0016791
1.5175000,1.5175000,1.5175000,-0.0015321,-0.0011706,-0.1126509,-0.0015321,-0.0033527,-0.0016523
1.5200000,1.5200000,1.5200000,-0.0015168,-0.0011649,-0.1120901,-0.0015168,-0.0033300,-0.0016258
1.5225000,1.5225000,1.5225000,-0.0015018,-0.0011593,-0.1115330,-0.0015018,-0.0033076,-0.0015998
1.5250000,1.5250000,1.5250000,-0.0014869,-0.0011537,-0.1109796,-0.0014869,-0.0032853,-0.0015740
1.5275000,1.5275000,1.5275000,-0.0014722,-0.0011481,-0.1104299,-0.0014722,-0.0032633,-0.0015487
1.5300000,1.5300000,1.5300000,-0.0014577,-0.0011426,-0.1098838,-0.0014577,-0.0032414,-0.0015236
1.5325000,1.5325000,1.5325000,-0.0014433,-0.0011371,-0.1093413,-0.0014433,-0.0032198,-0.0014989
1.5350000,1.5350000,1.5350000,-0.0014291,-0.0011316,-0.1088024,-0.0014291,-0.0031984,-0.0014745
1.5375000,1.5375000,1.5375000,-0.0014151,-0.0011262,-0.1082670,-0.0014151,-0.0031771,-0.0014505
1.5400000,1.5400000,1.5400000,-0.0014012,-0.0011208,-0.1077351,-0.0014012,-0.0031561,-0.0014268
1.5425000,1.5425000,1.5425000,-0.0013875,-0.0011155,-0.1072068,-0.0013875,-0.0031352,-0.0014033
1.5450000,1.5450000,1.5450000,-0.0013739,-0.0011101,-0.1066819,-0.0013739,-0.0031146,-0.0013802
1.5475000,1.5475000,1.5475000,-0.0013605,-0.0011049,-0.1061604,-0.0013605,-0.0030941,-0.0013575
1.5500000,1.5500000,1.5500000,-0.0013473,-0.0010996,-0.1056423,-0.0013473,-0.0030738,-0.0013350
1.5525000,1.5525000,1.5525000,-0.0013342,-0.0010944,-0.1051276,-0.0013342,-0.0030537,-0.0013128
1.5550000,1.5550000,1.5550000,-0.0013212,-0.0010892,-0.1046162,-0.0013212,-0.0030338,-0.0012909
1.5575000,1.5575000,1.5575000,-0.0013084,-0.0010840,-0.1041082,-0.0013084,-0.0030140,-0.0012693
1.5600000,1.5600000,1.5600000,-0.0012958,-0.0010789,-0.1036034,-0.0012958,-0.0029944,-0.0012480
1.5625000,1.5625000,1.5625000,-0.0012832,-0.0010738,-0.1031020,-0.0012832,-0.0029750,-0.0012270
1.5650000,1.5650000,1.5650000,-0.0012709,-0.0010688,-0.1026037,-0.0012709,-0.0029558,-0.0012062
1.5675000,1.5675000,1.5675000,-0.0012586,-0.0010637,-0.1021087,-0.0012586,-0.0029368,-0.0011857
1.5700000,1.5700000,1.5700000,-0.0012465,-0.0010587,-0.1016169,-0.0012465,-0.0029179,-0.0011655
1.5725000,1.5725000,1.5725000,-0.0012345,-0.0010538,-0.1011282,-0.0012345,-0.0028991,-0.0011456
1.5750000,1.5750000,1.5750000,-0.0012227,-0.0010488,-0.1006426,-0.0012227,-0.0028806,-0.0011259
1.5775000,1.5775000,1.5775000,-0.0012110,-0.0010439,-0.1001602,-0.0012110,-0.0028622,-0.0011065
1.5800000,1.5800000,1.5800000,-0.0011995,-0.0010391,-0.0996809,-0.0011995,-0.0028440,-0.0010874
1.5825000,1.5825000,1.5825000,-0.0011880,-0.0010342,-0.0992046,-0.0011880,-0.0028259,-0.0010685
1.5850000,1.5850000,1.5850000,-0.0011767,-0.0010294,-0.0987313,-0.0011767,-0.0028080,-0.0010498
1.5875000,1.5875000,1.5875000,-0.0011655,-0.0010246,-0.0982611,-0.0011655,-0.0027902,-0.0010314
1.5900000,1.5900000,1.5900000,-0.0011544,-0.0010199,-0.0977938,-0.0011544,-0.0027726,-0.0010133
1.5925000,1.5925000,1.5925000,-0.0011435,-0.0010151,-0.0973296,-0.0011435,-0.0027552,-0.0009954
1.5950000,1.5950000,1.5950000,-0.0011327,-0.0010104,-0.0968682,-0.0011327,-0.0027379,-0.0009777
1.5975000,1.5975000,1.5975000,-0.0011220,-0.0010058,-0.0964098,-0.0011220,-0.0027207,-0.0009602
