# r[nm],d[nm],daligned[nm],U(d)[kj/mol],V(d)[e/nm],Uslab(d)[kJ/mol],UC(d)[kJ/mol],UK(d)[kJ/mol],UCl(d)[kJ/mol]
0.1900000,0.1900000,0.1900000,1648.5157555,-0.0560464,88.5696571,1648.5157555,1045.1936932,inf
0.1925000,0.1925000,0.1925000,1421.1238361,-0.0608994,77.9780566,1421.1238361,900.5305757,inf
0.1950000,0.1950000,0.1950000,1227.4689943,-0.0652908,68.7296365,1227.4689943,777.4008909,inf
0.1975000,0.1975000,0.1975000,1062.1935895,-0.0692546,60.6401587,1062.1935895,672.3796750,inf
0.2000000,0.2000000,0.2000000,920.8479426,-0.0728223,53.5514121,920.8479426,582.6223673,inf
0.2025000,0.2025000,0.2025000,799.7268842,-0.0760231,47.3278808,799.7268842,505.7600291,inf
0.2050000,0.2050000,0.2050000,695.7373269,-0.0788844,41.8539688,695.7373269,439.8141964,inf
0.2075000,0.2075000,0.2075000,606.2905742,-0.0814328,37.0314682,606.2905742,383.1277837,inf
0.2100000,0.2100000,0.2100000,529.2144170,-0.0836955,32.7770965,529.2144170,334.3092988,inf
0.2125000,0.2125000,0.2125000,462.6812437,-0.0857020,29.0200801,462.6812437,292.1880165,inf
0.2150000,0.2150000,0.2150000,405.1493592,-0.0874856,25.6998768,405.1493592,255.7778349,1686.0586859
0.2175000,0.2175000,0.2175000,355.3153190,-0.0890812,22.7641645,355.3153190,224.2476379,1479.6096427
0.2200000,0.2200000,0.2200000,312.0753107,-0.0905216,20.1671757,312.0753107,196.8963949,1300.2360945
0.2225000,0.2225000,0.2225000,274.4936565,-0.0918313,17.8683709,274.4936565,173.1318821,1144.1418005
0.2250000,0.2250000,0.2250000,241.7766622,-0.0930225,15.8313677,241.7766622,152.4525217,1008.0989360
0.2275000,0.2275000,0.2275000,213.2504323,-0.0940949,14.0230394,213.2504323,134.4321474,889.3574116
0.2300000,0.2300000,0.2300000,188.3418191,-0.0950402,12.4127897,188.3418191,118.7075044,785.5693985
0.2325000,0.2325000,0.2325000,166.5621305,-0.0958482,10.9721327,166.5621305,104.9681442,694.7263401
0.2350000,0.2350000,0.2350000,147.4934263,-0.0965129,9.6747378,147.4934263,92.9482585,615.1063420
0.2375000,0.2375000,0.2375000,130.7772135,-0.0970360,8.4969651,130.7772135,82.4199856,545.2303191
0.2400000,0.2400000,0.2400000,116.1052449,-0.0974270,7.4186762,116.1052449,73.1877944,483.8255715
0.2425000,0.2425000,0.2425000,103.2120388,-0.0977010,6.4239216,103.2120388,65.0836719,429.7955654
0.2450000,0.2450000,0.2450000,91.8687290,-0.0978753,5.5011335,91.8687290,57.9629547,382.1947181
0.2475000,0.2475000,0.2475000,81.8779003,-0.0979658,4.6426911,81.8779003,51.7007244,340.2070684
0.2500000,0.2500000,0.2500000,73.0691506,-0.0979851,3.8440088,73.0691506,46.1887297,303.1279281
0.2525000,0.2525000,0.2525000,65.2952161,-0.0979419,3.1024583,65.2952161,41.3328024,270.3479163
0.2550000,0.2550000,0.2550000,58.4285700,-0.0978420,2.4164050,58.4285700,37.0507158,241.3390666
0.2575000,0.2575000,0.2575000,52.3584574,-0.0976900,1.7845066,52.3584574,33.2704074,215.6428550
0.2600000,0.2600000,0.2600000,46.9883507,-0.0974906,1.2052902,46.9883507,29.9284698,192.8600312
0.2625000,0.2625000,0.2625000,42.2338024,-0.0972506,0.6769489,42.2338024,26.9688303,172.6420918
0.2650000,0.2650000,0.2650000,38.0206606,-0.0969794,0.1972830,38.0206606,24.3415876,154.6841882
0.2675000,0.2675000,0.2675000,34.2835836,-0.0966904,-0.2362775,34.2835836,22.0020562,138.7192447
0.2700000,0.2700000,0.2700000,30.9647811,-0.0964037,-0.6266110,30.9647811,19.9101254,124.5130641
0.2725000,0.2725000,0.2725000,28.0129116,-0.0961499,-0.9768283,28.0129116,18.0300253,111.8602201
0.2750000,0.2750000,0.2750000,25.3821030,-0.0959729,-1.2901929,25.3821030,16.3304878,100.5805558
0.2775000,0.2775000,0.2775000,23.0311231,-0.0959303,-1.5700422,23.0311231,14.7851189,90.5161397
0.2800000,0.2800000,0.2800000,20.9227761,-0.0960862,-1.8197077,20.9227761,13.3726720,81.5285620
0.2825000,0.2825000,0.2825000,19.0236131,-0.0964951,-2.0424330,19.0236131,12.0769239,73.4964950
0.2850000,0.2850000,0.2850000,17.3039802,-0.0971811,-2.2412929,17.3039802,10.8860386,66.3134789
0.2875000,0.2875000,0.2875000,15.7383078,-0.0981185,-2.4191183,15.7383078,9.7915402,59.8859219
0.2900000,0.2900000,0.2900000,14.3054224,-0.0992250,-2.5784369,14.3054224,8.7871645,54.1313183
0.2925000,0.2925000,0.2925000,12.9886230,-0.1003729,-2.7214373,12.9886230,7.8678510,48.9766924
0.2950000,0.2950000,0.2950000,11.7753530,-0.1014153,-2.8499611,11.7753530,7.0290188,44.3572652
0.2975000,0.2975000,0.2975000,10.6564781,-0.1022172,-2.9655228,10.6564781,6.2661444,40.2153307
0.3000000,0.3000000,0.3000000,9.6253415,-0.1026792,-3.0693521,9.6253415,5.5745781,36.4993124
0.3025000,0.3025000,0.3025000,8.6768227,-0.1027477,-3.1624516,8.6768227,4.9495152,33.1629599
0.3050000,0.3050000,0.3050000,7.8065735,-0.1024124,-3.2456591,7.8065735,4.3860458,30.1646459
0.3075000,0.3075000,0.3075000,7.0105029,-0.1016966,-3.3197044,7.0105029,3.8792361,27.4667339
0.3100000,0.3100000,0.3100000,6.2844951,-0.1006446,-3.3852538,6.2844951,3.4242104,25.0350169
0.3125000,0.3125000,0.3125000,5.6243006,-0.0993109,-3.4429381,5.6243006,3.0162229,22.8382578
0.3150000,0.3150000,0.3150000,5.0255347,-0.0977521,-3.4933646,5.0255347,2.6507130,20.8478872
0.3175000,0.3175000,0.3175000,4.4837280,-0.0960208,-3.5371166,4.4837280,2.3233458,19.0379064
0.3200000,0.3200000,0.3200000,3.9943956,-0.0941630,-3.5747450,3.9943956,2.0300390,17.3849979
0.3225000,0.3225000,0.3225000,3.5531049,-0.0922152,-3.6067572,3.5531049,1.7669802,15.8687780
0.3250000,0.3250000,0.3250000,3.1555331,-0.0902039,-3.6336059,3.1555331,1.5306384,14.4720537
0.3275000,0.3275000,0.3275000,2.7975138,-0.0881460,-3.6556821,2.7975138,1.3177738,13.1809257
0.3300000,0.3300000,0.3300000,2.4750712,-0.0860491,-3.6733122,2.4750712,1.1254488,11.9846268
0.3325000,0.3325000,0.3325000,2.1844480,-0.0839142,-3.6867605,2.1844480,0.9510402,10.8750839
0.3350000,0.3350000,0.3350000,1.9221265,-0.0817381,-3.6962355,1.9221265,0.7922506,9.8462933
0.3375000,0.3375000,0.3375000,1.6848480,-0.0795160,-3.7019003,1.6848480,0.6471131,8.8936480
0.3400000,0.3400000,0.3400000,1.4696317,-0.0772443,-3.7038837,1.4696317,0.5139866,8.0133422
0.3425000,0.3425000,0.3425000,1.2737918,-0.0749227,-3.7022920,1.2737918,0.3915380,7.2019254
0.3450000,0.3450000,0.3450000,1.0949528,-0.0725556,-3.6972199,1.0949528,0.2787086,6.4560187
0.3475000,0.3475000,0.3475000,0.9310581,-0.0701527,-3.6887605,0.9310581,0.1746707,5.7721687
0.3500000,0.3500000,0.3500000,0.7803692,-0.0677284,-3.6770123,0.7803692,0.0787750,5.1468000
0.3525000,0.3525000,0.3525000,0.6414520,-0.0653015,-3.6620851,0.6414520,-0.0095011,4.5762249
0.3550000,0.3550000,0.3550000,0.5131496,-0.0628932,-3.6441031,0.5131496,-0.0906018,4.0566832
0.3575000,0.3575000,0.3575000,0.3945430,-0.0605258,-3.6232065,0.3945430,-0.1649321,3.5843909
0.3600000,0.3600000,0.3600000,0.2849036,-0.0582203,-3.5995508,0.2849036,-0.2328875,3.1555892
0.3625000,0.3625000,0.3625000,0.1836420,-0.0559948,-3.5733052,0.1836420,-0.2948738,2.7665876
0.3650000,0.3650000,0.3650000,0.0902605,-0.0538625,-3.5446504,0.0902605,-0.3513182,2.4138029
0.3675000,0.3675000,0.3675000,0.0043114,-0.0518311,-3.5137754,0.0043114,-0.4026727,2.0937924
0.3700000,0.3700000,0.3700000,-0.0746336,-0.0499032,-3.4808739,-0.0746336,-0.4494097,1.8032850
0.3725000,0.3725000,0.3725000,-0.1470048,-0.0480769,-3.4461417,-0.1470048,-0.4920115,1.5392093
0.3750000,0.3750000,0.3750000,-0.2132460,-0.0463478,-3.4097733,-0.2132460,-0.5309539,1.2987205
0.3775000,0.3775000,0.3775000,-0.2738189,-0.0447104,-3.3719595,-0.2738189,-0.5666872,1.0792236
0.3800000,0.3800000,0.3800000,-0.3292002,-0.0431588,-3.3328852,-0.3292002,-0.5996175,0.8783924
0.3825000,0.3825000,0.3825000,-0.3798748,-0.0416869,-3.2927276,-0.3798748,-0.6300916,0.6941809
0.3850000,0.3850000,0.3850000,-0.4263232,-0.0402885,-3.2516550,-0.4263232,-0.6583879,0.5248246
0.3875000,0.3875000,0.3875000,-0.4690067,-0.0389570,-3.2098259,-0.4690067,-0.6847126,0.3688309
0.3900000,0.3900000,0.3900000,-0.5083508,-0.0376856,-3.1673881,-0.5083508,-0.7092024,0.2249565
0.3925000,0.3925000,0.3925000,-0.5447316,-0.0364677,-3.1244789,-0.5447316,-0.7319314,0.0921763
0.3950000,0.3950000,0.3950000,-0.5784649,-0.0352972,-3.0812246,-0.5784649,-0.7529211,-0.0303562
0.3975000,0.3975000,0.3975000,-0.6098015,-0.0341688,-3.0377411,-0.6098015,-0.7721524,-0.1433500
0.4000000,0.4000000,0.4000000,-0.6389275,-0.0330778,-2.9941339,-0.6389275,-0.7895786,-0.2474171
0.4025000,0.4025000,0.4025000,-0.6659691,-0.0320198,-2.9504984,-0.6659691,-0.8051378,-0.3431066
0.4050000,0.4050000,0.4050000,-0.6910008,-0.0309904,-2.9069208,-0.6910008,-0.8187649,-0.4309327
0.4075000,0.4075000,0.4075000,-0.7140547,-0.0299852,-2.8634783,-0.7140547,-0.8304020,-0.5113943
0.4100000,0.4100000,0.4100000,-0.7351316,-0.0290003,-2.8202400,-0.7351316,-0.8400066,-0.5849870
0.4125000,0.4125000,0.4125000,-0.7542117,-0.0280324,-2.7772669,-0.7542117,-0.8475571,-0.6522086
0.4150000,0.4150000,0.4150000,-0.7712641,-0.0270792,-2.7346132,-0.7712641,-0.8530568,-0.7135584
0.4175000,0.4175000,0.4175000,-0.7862567,-0.0261397,-2.6923265,-0.7862567,-0.8565346,-0.7695320
0.4200000,0.4200000,0.4200000,-0.7991638,-0.0252145,-2.6504481,-0.7991638,-0.8580441,-0.8206121
0.4225000,0.4225000,0.4225000,-0.8099723,-0.0243052,-2.6090141,-0.8099723,-0.8576614,-0.8672575
0.4250000,0.4250000,0.4250000,-0.8186865,-0.0234145,-2.5680554,-0.8186865,-0.8554819,-0.9098918
0.4275000,0.4275000,0.4275000,-0.8253299,-0.0225458,-2.5275985,-0.8253299,-0.8516163,-0.9488940
0.4300000,0.4300000,0.4300000,-0.8299469,-0.0217026,-2.4876656,-0.8299469,-0.8461866,-0.9845913
0.4325000,0.4325000,0.4325000,-0.8326015,-0.0208882,-2.4482754,-0.8326015,-0.8393219,-1.0172563
0.4350000,0.4350000,0.4350000,-0.8333755,-0.0201056,-2.4094432,-0.8333755,-0.8311555,-1.0471075
0.4375000,0.4375000,0.4375000,-0.8323663,-0.0193573,-2.3711811,-0.8323663,-0.8218212,-1.0743126
0.4400000,0.4400000,0.4400000,-0.8296833,-0.0186449,-2.3334989,-0.8296833,-0.8114508,-1.0989940
0.4425000,0.4425000,0.4425000,-0.8254448,-0.0179695,-2.2964036,-0.8254448,-0.8001723,-1.1212361
0.4450000,0.4450000,0.4450000,-0.8197751,-0.0173315,-2.2599003,-0.8197751,-0.7881080,-1.1410934
0.4475000,0.4475000,0.4475000,-0.8128011,-0.0167308,-2.2239922,-0.8128011,-0.7753735,-1.1585988
0.4500000,0.4500000,0.4500000,-0.8046502,-0.0161664,-2.1886806,-0.8046502,-0.7620768,-1.1737715
0.4525000,0.4525000,0.4525000,-0.7954478,-0.0156375,-2.1539655,-0.7954478,-0.7483180,-1.1866253
0.4550000,0.4550000,0.4550000,-0.7853155,-0.0151424,-2.1198456,-0.7853155,-0.7341893,-1.1971745
0.4575000,0.4575000,0.4575000,-0.7743700,-0.0146795,-2.0863182,-0.7743700,-0.7197745,-1.2054400
0.4600000,0.4600000,0.4600000,-0.7627218,-0.0142470,-2.0533798,-0.7627218,-0.7051497,-1.2114532
0.4625000,0.4625000,0.4625000,-0.7504747,-0.0138430,-2.0210260,-0.7504747,-0.6903834,-1.2152587
0.4650000,0.4650000,0.4650000,-0.7377255,-0.0134656,-1.9892515,-0.7377255,-0.6755368,-1.2169155
0.4675000,0.4675000,0.4675000,-0.7245633,-0.0131127,-1.9580503,-0.7245633,-0.6606645,-1.2164974
0.4700000,0.4700000,0.4700000,-0.7110701,-0.0127826,-1.9274162,-0.7110701,-0.6458147,-1.2140918
0.4725000,0.4725000,0.4725000,-0.6973207,-0.0124735,-1.8973419,-0.6973207,-0.6310297,-1.2097982
0.4750000,0.4750000,0.4750000,-0.6833826,-0.0121836,-1.8678202,-0.6833826,-0.6163466,-1.2037265
0.4775000,0.4775000,0.4775000,-0.6693170,-0.0119113,-1.8388434,-0.6693170,-0.6017977,-1.1959940
0.4800000,0.4800000,0.4800000,-0.6551785,-0.0116550,-1.8104033,-0.6551785,-0.5874105,-1.1867236
0.4825000,0.4825000,0.4825000,-0.6410159,-0.0114135,-1.7824918,-0.6410159,-0.5732089,-1.1760411
0.4850000,0.4850000,0.4850000,-0.6268726,-0.0111855,-1.7551002,-0.6268726,-0.5592130,-1.1640734
0.4875000,0.4875000,0.4875000,-0.6127868,-0.0109696,-1.7282202,-0.6127868,-0.5454397,-1.1509464
0.4900000,0.4900000,0.4900000,-0.5987919,-0.0107649,-1.7018429,-0.5987919,-0.5319029,-1.1367832
0.4925000,0.4925000,0.4925000,-0.5849174,-0.0105704,-1.6759595,-0.5849174,-0.5186141,-1.1217034
0.4950000,0.4950000,0.4950000,-0.5711885,-0.0103852,-1.6505612,-0.5711885,-0.5055824,-1.1058214
0.4975000,0.4975000,0.4975000,-0.5576272,-0.0102084,-1.6256392,-0.5576272,-0.4928147,-1.0892460
0.5000000,0.5000000,0.5000000,-0.5442520,-0.0100393,-1.6011846,-0.5442520,-0.4803165,-1.0720800
0.5025000,0.5025000,0.5025000,-0.5310789,-0.0098773,-1.5771887,-0.5310789,-0.4680913,-1.0544192
0.5050000,0.5050000,0.5050000,-0.5181209,-0.0097218,-1.5536425,-0.5181209,-0.4561415,-1.0363530
0.5075000,0.5075000,0.5075000,-0.5053891,-0.0095721,-1.5305374,-0.5053891,-0.4444681,-1.0179639
0.5100000,0.5100000,0.5100000,-0.4928922,-0.0094279,-1.5078648,-0.4928922,-0.4330712,-0.9993278
0.5125000,0.5125000,0.5125000,-0.4806373,-0.0092887,-1.4856160,-0.4806373,-0.4219499,-0.9805141
0.5150000,0.5150000,0.5150000,-0.4686298,-0.0091541,-1.4637827,-0.4686298,-0.4111024,-0.9615860
0.5175000,0.5175000,0.5175000,-0.4568734,-0.0090237,-1.4423565,-0.4568734,-0.4005263,-0.9426004
0.5200000,0.5200000,0.5200000,-0.4453710,-0.0088973,-1.4213290,-0.4453710,-0.3902188,-0.9236090
0.5225000,0.5225000,0.5225000,-0.4341241,-0.0087745,-1.4006922,-0.4341241,-0.3801763,-0.9046580
0.5250000,0.5250000,0.5250000,-0.4231330,-0.0086551,-1.3804381,-0.4231330,-0.3703949,-0.8857886
0.5275000,0.5275000,0.5275000,-0.4123976,-0.0085388,-1.3605587,-0.4123976,-0.3608704,-0.8670373
0.5300000,0.5300000,0.5300000,-0.4019168,-0.0084255,-1.3410464,-0.4019168,-0.3515983,-0.8484367
0.5325000,0.5325000,0.5325000,-0.3916888,-0.0083149,-1.3218934,-0.3916888,-0.3425738,-0.8300151
0.5350000,0.5350000,0.5350000,-0.3817112,-0.0082069,-1.3030923,-0.3817112,-0.3337919,-0.8117974
0.5375000,0.5375000,0.5375000,-0.3719815,-0.0081013,-1.2846358,-0.3719815,-0.3252477,-0.7938051
0.5400000,0.5400000,0.5400000,-0.3624962,-0.0079981,-1.2665167,-0.3624962,-0.3169358,-0.7760569
0.5425000,0.5425000,0.5425000,-0.3532519,-0.0078970,-1.2487277,-0.3532519,-0.3088509,-0.7585684
0.5450000,0.5450000,0.5450000,-0.3442448,-0.0077980,-1.2312622,-0.3442448,-0.3009879,-0.7413530
0.5475000,0.5475000,0.5475000,-0.3354708,-0.0077009,-1.2141131,-0.3354708,-0.2933413,-0.7244220
0.5500000,0.5500000,0.5500000,-0.3269256,-0.0076057,-1.1972739,-0.3269256,-0.2859058,-0.7077842
0.5525000,0.5525000,0.5525000,-0.3186047,-0.0075123,-1.1807381,-0.3186047,-0.2786760,-0.6914471
0.5550000,0.5550000,0.5550000,-0.3105036,-0.0074206,-1.1644992,-0.3105036,-0.2716467,-0.6754163
0.5575000,0.5575000,0.5575000,-0.3026177,-0.0073305,-1.1485511,-0.3026177,-0.2648126,-0.6596959
0.5600000,0.5600000,0.5600000,-0.2949421,-0.0072420,-1.1328875,-0.2949421,-0.2581686,-0.6442888
0.5625000,0.5625000,0.5625000,-0.2874722,-0.0071550,-1.1175026,-0.2874722,-0.2517094,-0.6291968
0.5650000,0.5650000,0.5650000,-0.2802032,-0.0070694,-1.1023904,-0.2802032,-0.2454302,-0.6144206
0.5675000,0.5675000,0.5675000,-0.2731303,-0.0069853,-1.0875452,-0.2731303,-0.2393259,-0.5999599
0.5700000,0.5700000,0.5700000,-0.2662486,-0.0069025,-1.0729614,-0.2662486,-0.2333916,-0.5858137
0.5725000,0.5725000,0.5725000,-0.2595535,-0.0068211,-1.0586336,-0.2595535,-0.2276226,-0.5719803
0.5750000,0.5750000,0.5750000,-0.2530402,-0.0067409,-1.0445564,-0.2530402,-0.2220143,-0.5584574
0.5775000,0.5775000,0.5775000,-0.2467041,-0.0066620,-1.0307245,-0.2467041,-0.2165620,-0.5452420
0.5800000,0.5800000,0.5800000,-0.2405405,-0.0065843,-1.0171328,-0.2405405,-0.2112612,-0.5323308
0.5825000,0.5825000,0.5825000,-0.2345450,-0.0065078,-1.0037764,-0.2345450,-0.2061077,-0.5197200
0.5850000,0.5850000,0.5850000,-0.2287130,-0.0064324,-0.9906503,-0.2287130,-0.2010971,-0.5074056
0.5875000,0.5875000,0.5875000,-0.2230401,-0.0063582,-0.9777497,-0.2230401,-0.1962253,-0.4953831
0.5900000,0.5900000,0.5900000,-0.2175220,-0.0062850,-0.9650700,-0.2175220,-0.1914883,-0.4836479
0.5925000,0.5925000,0.5925000,-0.2121546,-0.0062130,-0.9526067,-0.2121546,-0.1868821,-0.4721951
0.5950000,0.5950000,0.5950000,-0.2069335,-0.0061419,-0.9403552,-0.2069335,-0.1824029,-0.4610197
0.5975000,0.5975000,0.5975000,-0.2018548,-0.0060720,-0.9283112,-0.2018548,-0.1780470,-0.4501166
0.6000000,0.6000000,0.6000000,-0.1969146,-0.0060030,-0.9164705,-0.1969146,-0.1738107,-0.4394805
0.6025000,0.6025000,0.6025000,-0.1921089,-0.0059350,-0.9048288,-0.1921089,-0.1696905,-0.4291060
0.6050000,0.6050000,0.6050000,-0.1874339,-0.0058680,-0.8933822,-0.1874339,-0.1656829,-0.4189878
0.6075000,0.6075000,0.6075000,-0.1828859,-0.0058019,-0.8821266,-0.1828859,-0.1617847,-0.4091205
0.6100000,0.6100000,0.6100000,-0.1784614,-0.0057367,-0.8710582,-0.1784614,-0.1579926,-0.3994986
0.6125000,0.6125000,0.6125000,-0.1741569,-0.0056725,-0.8601731,-0.1741569,-0.1543035,-0.3901166
0.6150000,0.6150000,0.6150000,-0.1699688,-0.0056092,-0.8494678,-0.1699688,-0.1507143,-0.3809693
0.6175000,0.6175000,0.6175000,-0.1658939,-0.0055467,-0.8389385,-0.1658939,-0.1472221,-0.3720512
0.6200000,0.6200000,0.6200000,-0.1619290,-0.0054852,-0.8285817,-0.1619290,-0.1438240,-0.3633569
0.6225000,0.6225000,0.6225000,-0.1580708,-0.0054244,-0.8183939,-0.1580708,-0.1405172,-0.3548811
0.6250000,0.6250000,0.6250000,-0.1543164,-0.0053645,-0.8083719,-0.1543164,-0.1372990,-0.3466187
0.6275000,0.6275000,0.6275000,-0.1506626,-0.0053055,-0.7985122,-0.1506626,-0.1341668,-0.3385645
0.6300000,0.6300000,0.6300000,-0.1471068,-0.0052472,-0.7888117,-0.1471068,-0.1311181,-0.3307133
0.6325000,0.6325000,0.6325000,-0.1436459,-0.0051898,-0.7792672,-0.1436459,-0.1281504,-0.3230601
0.6350000,0.6350000,0.6350000,-0.1402773,-0.0051331,-0.7698756,-0.1402773,-0.1252613,-0.3156001
0.6375000,0.6375000,0.6375000,-0.1369983,-0.0050772,-0.7606340,-0.1369983,-0.1224486,-0.3083284
0.6400000,0.6400000,0.6400000,-0.1338063,-0.0050221,-0.7515393,-0.1338063,-0.1197099,-0.3012401
0.6425000,0.6425000,0.6425000,-0.1306989,-0.0049677,-0.7425888,-0.1306989,-0.1170431,-0.2943307
0.6450000,0.6450000,0.6450000,-0.1276735,-0.0049141,-0.7337795,-0.1276735,-0.1144461,-0.2875956
0.6475000,0.6475000,0.6475000,-0.1247279,-0.0048612,-0.7251089,-0.1247279,-0.1119169,-0.2810302
0.6500000,0.6500000,0.6500000,-0.1218597,-0.0048089,-0.7165740,-0.1218597,-0.1094534,-0.2746302
0.6525000,0.6525000,0.6525000,-0.1190667,-0.0047574,-0.7081725,-0.1190667,-0.1070538,-0.2683913
0.6550000,0.6550000,0.6550000,-0.1163467,-0.0047066,-0.6999016,-0.1163467,-0.1047163,-0.2623093
0.6575000,0.6575000,0.6575000,-0.1136977,-0.0046565,-0.6917589,-0.1136977,-0.1024389,-0.2563801
0.6600000,0.6600000,0.6600000,-0.1111176,-0.0046070,-0.6837419,-0.1111176,-0.1002200,-0.2505997
0.6625000,0.6625000,0.6625000,-0.1086045,-0.0045582,-0.6758482,-0.1086045,-0.0980579,-0.2449642
0.6650000,0.6650000,0.6650000,-0.1061563,-0.0045101,-0.6680756,-0.1061563,-0.0959510,-0.2394697
0.6675000,0.6675000,0.6675000,-0.1037714,-0.0044626,-0.6604216,-0.1037714,-0.0938976,-0.2341126
0.6700000,0.6700000,0.6700000,-0.1014478,-0.0044157,-0.6528841,-0.1014478,-0.0918962,-0.2288892
0.6725000,0.6725000,0.6725000,-0.0991839,-0.0043695,-0.6454609,-0.0991839,-0.0899454,-0.2237959
0.6750000,0.6750000,0.6750000,-0.0969778,-0.0043238,-0.6381498,-0.0969778,-0.0880437,-0.2188294
0.6775000,0.6775000,0.6775000,-0.0948281,-0.0042788,-0.6309487,-0.0948281,-0.0861897,-0.2139862
0.6800000,0.6800000,0.6800000,-0.0927331,-0.0042343,-0.6238556,-0.0927331,-0.0843821,-0.2092631
0.6825000,0.6825000,0.6825000,-0.0906912,-0.0041905,-0.6168685,-0.0906912,-0.0826195,-0.2046569
0.6850000,0.6850000,0.6850000,-0.0887010,-0.0041472,-0.6099854,-0.0887010,-0.0809006,-0.2001645
0.6875000,0.6875000,0.6875000,-0.0867609,-0.0041045,-0.6032043,-0.0867609,-0.0792243,-0.1957828
0.6900000,0.6900000,0.6900000,-0.0848697,-0.0040623,-0.5965236,-0.0848697,-0.0775893,-0.1915089
0.6925000,0.6925000,0.6925000,-0.0830259,-0.0040207,-0.5899412,-0.0830259,-0.0759945,-0.1873400
0.6950000,0.6950000,0.6950000,-0.0812281,-0.0039796,-0.5834553,-0.0812281,-0.0744388,-0.1832732
0.6975000,0.6975000,0.6975000,-0.0794752,-0.0039391,-0.5770644,-0.0794752,-0.0729210,-0.1793059
0.7000000,0.7000000,0.7000000,-0.0777659,-0.0038991,-0.5707665,-0.0777659,-0.0714402,-0.1754353
0.7025000,0.7025000,0.7025000,-0.0760989,-0.0038596,-0.5645600,-0.0760989,-0.0699952,-0.1716590
0.7050000,0.7050000,0.7050000,-0.0744731,-0.0038206,-0.5584434,-0.0744731,-0.0685851,-0.1679744
0.7075000,0.7075000,0.7075000,-0.0728873,-0.0037821,-0.5524149,-0.0728873,-0.0672090,-0.1643791
0.7100000,0.7100000,0.7100000,-0.0713405,-0.0037441,-0.5464730,-0.0713405,-0.0658659,-0.1608707
0.7125000,0.7125000,0.7125000,-0.0698315,-0.0037066,-0.5406161,-0.0698315,-0.0645549,-0.1574470
0.7150000,0.7150000,0.7150000,-0.0683594,-0.0036696,-0.5348428,-0.0683594,-0.0632752,-0.1541056
0.7175000,0.7175000,0.7175000,-0.0669230,-0.0036331,-0.5291516,-0.0669230,-0.0620258,-0.1508445
0.7200000,0.7200000,0.7200000,-0.0655216,-0.0035970,-0.5235409,-0.0655216,-0.0608060,-0.1476615
0.7225000,0.7225000,0.7225000,-0.0641540,-0.0035614,-0.5180094,-0.0641540,-0.0596149,-0.1445545
0.7250000,0.7250000,0.7250000,-0.0628194,-0.0035262,-0.5125558,-0.0628194,-0.0584518,-0.1415215
0.7275000,0.7275000,0.7275000,-0.0615168,-0.0034915,-0.5071786,-0.0615168,-0.0573159,-0.1385607
0.7300000,0.7300000,0.7300000,-0.0602455,-0.0034572,-0.5018764,-0.0602455,-0.0562065,-0.1356701
0.7325000,0.7325000,0.7325000,-0.0590046,-0.0034234,-0.4966481,-0.0590046,-0.0551230,-0.1328478
0.7350000,0.7350000,0.7350000,-0.0577932,-0.0033900,-0.4914923,-0.0577932,-0.0540645,-0.1300922
0.7375000,0.7375000,0.7375000,-0.0566105,-0.0033570,-0.4864078,-0.0566105,-0.0530304,-0.1274014
0.7400000,0.7400000,0.7400000,-0.0554559,-0.0033244,-0.4813933,-0.0554559,-0.0520202,-0.1247737
0.7425000,0.7425000,0.7425000,-0.0543285,-0.0032922,-0.4764477,-0.0543285,-0.0510331,-0.1222076
0.7450000,0.7450000,0.7450000,-0.0532276,-0.0032604,-0.4715697,-0.0532276,-0.0500685,-0.1197014
0.7475000,0.7475000,0.7475000,-0.0521526,-0.0032291,-0.4667583,-0.0521526,-0.0491259,-0.1172536
0.7500000,0.7500000,0.7500000,-0.0511026,-0.0031981,-0.4620122,-0.0511026,-0.0482047,-0.1148626
0.7525000,0.7525000,0.7525000,-0.0500772,-0.0031675,-0.4573305,-0.0500772,-0.0473043,-0.1125271
0.7550000,0.7550000,0.7550000,-0.0490756,-0.0031372,-0.4527119,-0.0490756,-0.0464242,-0.1102455
0.7575000,0.7575000,0.7575000,-0.0480972,-0.0031074,-0.4481554,-0.0480972,-0.0455639,-0.1080165
0.7600000,0.7600000,0.7600000,-0.0471413,-0.0030779,-0.4436601,-0.0471413,-0.0447228,-0.1058388
0.7625000,0.7625000,0.7625000,-0.0462075,-0.0030488,-0.4392248,-0.0462075,-0.0439005,-0.1037109
0.7650000,0.7650000,0.7650000,-0.0452952,-0.0030200,-0.4348486,-0.0452952,-0.0430964,-0.1016318
0.7675000,0.7675000,0.7675000,-0.0444037,-0.0029916,-0.4305305,-0.0444037,-0.0423101,-0.0996000
0.7700000,0.7700000,0.7700000,-0.0435325,-0.0029635,-0.4262696,-0.0435325,-0.0415412,-0.0976145
0.7725000,0.7725000,0.7725000,-0.0426812,-0.0029358,-0.4220648,-0.0426812,-0.0407892,-0.0956740
0.7750000,0.7750000,0.7750000,-0.0418491,-0.0029084,-0.4179153,-0.0418491,-0.0400536,-0.0937773
0.7775000,0.7775000,0.7775000,-0.0410359,-0.0028814,-0.4138201,-0.0410359,-0.0393342,-0.0919235
0.7800000,0.7800000,0.7800000,-0.0402410,-0.0028546,-0.4097785,-0.0402410,-0.0386304,-0.0901114
0.7825000,0.7825000,0.7825000,-0.0394639,-0.0028282,-0.4057894,-0.0394639,-0.0379418,-0.0883399
0.7850000,0.7850000,0.7850000,-0.0387043,-0.0028021,-0.4018521,-0.0387043,-0.0372681,-0.0866081
0.7875000,0.7875000,0.7875000,-0.0379616,-0.0027763,-0.3979657,-0.0379616,-0.0366090,-0.0849150
0.7900000,0.7900000,0.7900000,-0.0372355,-0.0027509,-0.3941294,-0.0372355,-0.0359640,-0.0832595
0.7925000,0.7925000,0.7925000,-0.0365255,-0.0027257,-0.3903424,-0.0365255,-0.0353327,-0.0816408
0.7950000,0.7950000,0.7950000,-0.0358312,-0.0027008,-0.3866038,-0.0358312,-0.0347150,-0.0800579
0.7975000,0.7975000,0.7975000,-0.0351522,-0.0026763,-0.3829130,-0.0351522,-0.0341103,-0.0785099
0.8000000,0.8000000,0.8000000,-0.0344881,-0.0026520,-0.3792692,-0.0344881,-0.0335185,-0.0769961
0.8025000,0.8025000,0.8025000,-0.0338386,-0.0026280,-0.3756716,-0.0338386,-0.0329392,-0.0755155
0.8050000,0.8050000,0.8050000,-0.0332033,-0.0026043,-0.3721195,-0.0332033,-0.0323720,-0.0740673
0.8075000,0.8075000,0.8075000,-0.0325819,-0.0025809,-0.3686121,-0.0325819,-0.0318167,-0.0726507
0.8100000,0.8100000,0.8100000,-0.0319740,-0.0025577,-0.3651488,-0.0319740,-0.0312730,-0.0712650
0.8125000,0.8125000,0.8125000,-0.0313792,-0.0025348,-0.3617289,-0.0313792,-0.0307407,-0.0699094
0.8150000,0.8150000,0.8150000,-0.0307973,-0.0025122,-0.3583517,-0.0307973,-0.0302194,-0.0685831
0.8175000,0.8175000,0.8175000,-0.0302279,-0.0024899,-0.3550165,-0.0302279,-0.0297088,-0.0672856
0.8200000,0.8200000,0.8200000,-0.0296708,-0.0024678,-0.3517227,-0.0296708,-0.0292088,-0.0660159
0.8225000,0.8225000,0.8225000,-0.0291256,-0.0024459,-0.3484697,-0.0291256,-0.0287190,-0.0647736
0.8250000,0.8250000,0.8250000,-0.0285920,-0.0024243,-0.3452567,-0.0285920,-0.0282393,-0.0635579
0.8275000,0.8275000,0.8275000,-0.0280698,-0.0024030,-0.3420833,-0.0280698,-0.0277694,-0.0623681
0.8300000,0.8300000,0.8300000,-0.0275587,-0.0023819,-0.3389487,-0.0275587,-0.0273090,-0.0612037
0.8325000,0.8325000,0.8325000,-0.0270583,-0.0023611,-0.3358524,-0.0270583,-0.0268579,-0.0600641
0.8350000,0.8350000,0.8350000,-0.0265686,-0.0023405,-0.3327938,-0.0265686,-0.0264160,-0.0589486
0.8375000,0.8375000,0.8375000,-0.0260891,-0.0023201,-0.3297724,-0.0260891,-0.0259829,-0.0578568
0.8400000,0.8400000,0.8400000,-0.0256197,-0.0023000,-0.3267876,-0.0256197,-0.0255585,-0.0567879
0.8425000,0.8425000,0.8425000,-0.0251601,-0.0022800,-0.3238387,-0.0251601,-0.0251427,-0.0557415
0.8450000,0.8450000,0.8450000,-0.0247101,-0.0022604,-0.3209254,-0.0247101,-0.0247351,-0.0547171
0.8475000,0.8475000,0.8475000,-0.0242695,-0.0022409,-0.3180469,-0.0242695,-0.0243356,-0.0537141
0.8500000,0.8500000,0.8500000,-0.0238380,-0.0022217,-0.3152030,-0.0238380,-0.0239440,-0.0527320
0.8525000,0.8525000,0.8525000,-0.0234154,-0.0022026,-0.3123929,-0.0234154,-0.0235601,-0.0517704
0.8550000,0.8550000,0.8550000,-0.0230015,-0.0021838,-0.3096162,-0.0230015,-0.0231838,-0.0508287
0.8575000,0.8575000,0.8575000,-0.0225961,-0.0021652,-0.3068724,-0.0225961,-0.0228148,-0.0499065
0.8600000,0.8600000,0.8600000,-0.0221991,-0.0021468,-0.3041611,-0.0221991,-0.0224531,-0.0490034
0.8625000,0.8625000,0.8625000,-0.0218101,-0.0021286,-0.3014817,-0.0218101,-0.0220984,-0.0481188
0.8650000,0.8650000,0.8650000,-0.0214291,-0.0021106,-0.2988337,-0.0214291,-0.0217506,-0.0472525
0.8675000,0.8675000,0.8675000,-0.0210558,-0.0020929,-0.2962168,-0.0210558,-0.0214095,-0.0464038
0.8700000,0.8700000,0.8700000,-0.0206901,-0.0020753,-0.2936304,-0.0206901,-0.0210750,-0.0455725
0.8725000,0.8725000,0.8725000,-0.0203318,-0.0020579,-0.2910742,-0.0203318,-0.0207470,-0.0447581
0.8750000,0.8750000,0.8750000,-0.0199807,-0.0020407,-0.2885476,-0.0199807,-0.0204252,-0.0439603
0.8775000,0.8775000,0.8775000,-0.0196366,-0.0020236,-0.2860502,-0.0196366,-0.0201095,-0.0431786
0.8800000,0.8800000,0.8800000,-0.0192995,-0.0020068,-0.2835817,-0.0192995,-0.0197999,-0.0424128
0.8825000,0.8825000,0.8825000,-0.0189690,-0.0019902,-0.2811416,-0.0189690,-0.0194961,-0.0416624
0.8850000,0.8850000,0.8850000,-0.0186452,-0.0019737,-0.2787295,-0.0186452,-0.0191981,-0.0409270
0.8875000,0.8875000,0.8875000,-0.0183278,-0.0019574,-0.2763450,-0.0183278,-0.0189057,-0.0402065
0.8900000,0.8900000,0.8900000,-0.0180166,-0.0019413,-0.2739877,-0.0180166,-0.0186188,-0.0395003
0.8925000,0.8925000,0.8925000,-0.0177117,-0.0019254,-0.2716572,-0.0177117,-0.0183373,-0.0388082
0.8950000,0.8950000,0.8950000,-0.0174127,-0.0019096,-0.2693531,-0.0174127,-0.0180610,-0.0381299
0.8975000,0.8975000,0.8975000,-0.0171196,-0.0018940,-0.2670751,-0.0171196,-0.0177899,-0.0374651
0.9000000,0.9000000,0.9000000,-0.0168322,-0.0018786,-0.2648228,-0.0168322,-0.0175237,-0.0368134
0.9025000,0.9025000,0.9025000,-0.0165505,-0.0018633,-0.2625958,-0.0165505,-0.0172626,-0.0361747
0.9050000,0.9050000,0.9050000,-0.0162742,-0.0018482,-0.2603938,-0.0162742,-0.0170062,-0.0355484
0.9075000,0.9075000,0.9075000,-0.0160033,-0.0018333,-0.2582164,-0.0160033,-0.0167545,-0.0349345
0.9100000,0.9100000,0.9100000,-0.0157377,-0.0018185,-0.2560632,-0.0157377,-0.0165075,-0.0343327
0.9125000,0.9125000,0.9125000,-0.0154772,-0.0018039,-0.2539341,-0.0154772,-0.0162649,-0.0337425
0.9150000,0.9150000,0.9150000,-0.0152217,-0.0017895,-0.2518285,-0.0152217,-0.0160268,-0.0331639
0.9175000,0.9175000,0.9175000,-0.0149711,-0.0017751,-0.2497462,-0.0149711,-0.0157930,-0.0325966
0.9200000,0.9200000,0.9200000,-0.0147253,-0.0017610,-0.2476869,-0.0147253,-0.0155634,-0.0320403
0.9225000,0.9225000,0.9225000,-0.0144842,-0.0017470,-0.2456502,-0.0144842,-0.0153379,-0.0314947
0.9250000,0.9250000,0.9250000,-0.0142477,-0.0017331,-0.2436359,-0.0142477,-0.0151165,-0.0309596
0.9275000,0.9275000,0.9275000,-0.0140158,-0.0017194,-0.2416436,-0.0140158,-0.0148991,-0.0304349
0.9300000,0.9300000,0.9300000,-0.0137882,-0.0017058,-0.2396730,-0.0137882,-0.0146856,-0.0299203
0.9325000,0.9325000,0.9325000,-0.0135649,-0.0016924,-0.2377238,-0.0135649,-0.0144758,-0.0294155
0.9350000,0.9350000,0.9350000,-0.0133458,-0.0016791,-0.2357958,-0.0133458,-0.0142698,-0.0289203
0.9375000,0.9375000,0.9375000,-0.0131308,-0.0016659,-0.2338886,-0.0131308,-0.0140674,-0.0284346
0.9400000,0.9400000,0.9400000,-0.0129199,-0.0016529,-0.2320020,-0.0129199,-0.0138686,-0.0279581
0.9425000,0.9425000,0.9425000,-0.0127129,-0.0016400,-0.2301357,-0.0127129,-0.0136733,-0.0274907
0.9450000,0.9450000,0.9450000,-0.0125098,-0.0016273,-0.2282894,-0.0125098,-0.0134814,-0.0270321
0.9475000,0.9475000,0.9475000,-0.0123104,-0.0016146,-0.2264629,-0.0123104,-0.0132928,-0.0265822
0.9500000,0.9500000,0.9500000,-0.0121148,-0.0016021,-0.2246558,-0.0121148,-0.0131076,-0.0261407
0.9525000,0.9525000,0.9525000,-0.0119227,-0.0015898,-0.2228680,-0.0119227,-0.0129255,-0.0257076
0.9550000,0.9550000,0.9550000,-0.0117343,-0.0015775,-0.2210992,-0.0117343,-0.0127467,-0.0252826
0.9575000,0.9575000,0.9575000,-0.0115492,-0.0015654,-0.2193490,-0.0115492,-0.0125708,-0.0248655
0.9600000,0.9600000,0.9600000,-0.0113676,-0.0015534,-0.2176174,-0.0113676,-0.0123981,-0.0244561
0.9625000,0.9625000,0.9625000,-0.0111893,-0.0015415,-0.2159040,-0.0111893,-0.0122283,-0.0240544
0.9650000,0.9650000,0.9650000,-0.0110143,-0.0015298,-0.2142085,-0.0110143,-0.0120613,-0.0236602
0.9675000,0.9675000,0.9675000,-0.0108424,-0.0015181,-0.2125309,-0.0108424,-0.0118973,-0.0232733
0.9700000,0.9700000,0.9700000,-0.0106737,-0.0015066,-0.2108707,-0.0106737,-0.0117360,-0.0228935
0.9725000,0.9725000,0.9725000,-0.0105081,-0.0014952,-0.2092278,-0.0105081,-0.0115775,-0.0225207
0.9750000,0.9750000,0.9750000,-0.0103454,-0.0014839,-0.2076020,-0.0103454,-0.0114216,-0.0221547
0.9775000,0.9775000,0.9775000,-0.0101856,-0.0014728,-0.2059931,-0.0101856,-0.0112683,-0.0217955
0.9800000,0.9800000,0.9800000,-0.0100288,-0.0014617,-0.2044008,-0.0100288,-0.0111177,-0.0214429
0.9825000,0.9825000,0.9825000,-0.0098747,-0.0014507,-0.2028249,-0.0098747,-0.0109695,-0.0210966
0.9850000,0.9850000,0.9850000,-0.0097234,-0.0014399,-0.2012652,-0.0097234,-0.0108238,-0.0207567
0.9875000,0.9875000,0.9875000,-0.0095748,-0.0014292,-0.1997215,-0.0095748,-0.0106806,-0.0204230
0.9900000,0.9900000,0.9900000,-0.0094289,-0.0014185,-0.1981935,-0.0094289,-0.0105397,-0.0200953
0.9925000,0.9925000,0.9925000,-0.0092855,-0.0014080,-0.1966812,-0.0092855,-0.0104012,-0.0197736
0.9950000,0.9950000,0.9950000,-0.0091447,-0.0013976,-0.1951843,-0.0091447,-0.0102649,-0.0194576
0.9975000,0.9975000,0.9975000,-0.0090064,-0.0013872,-0.1937025,-0.0090064,-0.0101309,-0.0191473
1.0000000,1.0000000,1.0000000,-0.0088705,-0.0013770,-0.1922358,-0.0088705,-0.0099991,-0.0188426
1.0025000,1.0025000,1.0025000,-0.0087370,-0.0013669,-0.1907838,-0.0087370,-0.0098694,-0.0185434
1.0050000,1.0050000,1.0050000,-0.0086058,-0.0013569,-0.1893465,-0.0086058,-0.0097418,-0.0182495
1.0075000,1.0075000,1.0075000,-0.0084769,-0.0013469,-0.1879236,-0.0084769,-0.0096163,-0.0179609
1.0100000,1.0100000,1.0100000,-0.0083503,-0.0013371,-0.1865150,-0.0083503,-0.0094929,-0.0176774
1.0125000,1.0125000,1.0125000,-0.0082259,-0.0013274,-0.1851205,-0.0082259,-0.0093714,-0.0173989
1.0150000,1.0150000,1.0150000,-0.0081036,-0.0013177,-0.1837399,-0.0081036,-0.0092519,-0.0171254
1.0175000,1.0175000,1.0175000,-0.0079835,-0.0013082,-0.1823729,-0.0079835,-0.0091343,-0.0168567
1.0200000,1.0200000,1.0200000,-0.0078654,-0.0012987,-0.1810196,-0.0078654,-0.0090186,-0.0165927
1.0225000,1.0225000,1.0225000,-0.0077493,-0.0012893,-0.1796797,-0.0077493,-0.0089047,-0.0163334
1.0250000,1.0250000,1.0250000,-0.0076353,-0.0012801,-0.1783529,-0.0076353,-0.0087927,-0.0160786
1.0275000,1.0275000,1.0275000,-0.0075232,-0.0012709,-0.1770393,-0.0075232,-0.0086824,-0.0158283
1.0300000,1.0300000,1.0300000,-0.0074130,-0.0012618,-0.1757385,-0.0074130,-0.0085739,-0.0155823
1.0325000,1.0325000,1.0325000,-0.0073048,-0.0012528,-0.1744505,-0.0073048,-0.0084671,-0.0153407
1.0350000,1.0350000,1.0350000,-0.0071983,-0.0012438,-0.1731751,-0.0071983,-0.0083619,-0.0151033
1.0375000,1.0375000,1.0375000,-0.0070937,-0.0012350,-0.1719121,-0.0070937,-0.0082585,-0.0148699
1.0400000,1.0400000,1.0400000,-0.0069908,-0.0012262,-0.1706614,-0.0069908,-0.0081566,-0.0146406
1.0425000,1.0425000,1.0425000,-0.0068897,-0.0012175,-0.1694228,-0.0068897,-0.0080563,-0.0144153
1.0450000,1.0450000,1.0450000,-0.0067902,-0.0012089,-0.1681962,-0.0067902,-0.0079576,-0.0141939
1.0475000,1.0475000,1.0475000,-0.0066925,-0.0012004,-0.1669814,-0.0066925,-0.0078604,-0.0139763
1.0500000,1.0500000,1.0500000,-0.0065964,-0.0011920,-0.1657784,-0.0065964,-0.0077647,-0.0137624
1.0525000,1.0525000,1.0525000,-0.0065019,-0.0011836,-0.1645869,-0.0065019,-0.0076705,-0.0135522
1.0550000,1.0550000,1.0550000,-0.0064089,-0.0011753,-0.1634068,-0.0064089,-0.0075777,-0.0133455
1.0575000,1.0575000,1.0575000,-0.0063175,-0.0011671,-0.1622380,-0.0063175,-0.0074863,-0.0131424
1.0600000,1.0600000,1.0600000,-0.0062277,-0.0011590,-0.1610804,-0.0062277,-0.0073964,-0.0129428
1.0625000,1.0625000,1.0625000,-0.0061393,-0.0011509,-0.1599338,-0.0061393,-0.0073078,-0.0127465
1.0650000,1.0650000,1.0650000,-0.0060524,-0.0011429,-0.1587980,-0.0060524,-0.0072206,-0.0125536
1.0675000,1.0675000,1.0675000,-0.0059669,-0.0011350,-0.1576730,-0.0059669,-0.0071346,-0.0123639
1.0700000,1.0700000,1.0700000,-0.0058828,-0.0011272,-0.1565587,-0.0058828,-0.0070500,-0.0121775
1.0725000,1.0725000,1.0725000,-0.0058001,-0.0011194,-0.1554548,-0.0058001,-0.0069667,-0.0119942
1.0750000,1.0750000,1.0750000,-0.0057188,-0.0011117,-0.1543613,-0.0057188,-0.0068846,-0.0118139
1.0775000,1.0775000,1.0775000,-0.0056388,-0.0011041,-0.1532781,-0.0056388,-0.0068037,-0.0116367
1.0800000,1.0800000,1.0800000,-0.0055601,-0.0010965,-0.1522050,-0.0055601,-0.0067241,-0.0114624
1.0825000,1.0825000,1.0825000,-0.0054827,-0.0010891,-0.1511419,-0.0054827,-0.0066456,-0.0112911
1.0850000,1.0850000,1.0850000,-0.0054065,-0.0010816,-0.1500887,-0.0054065,-0.0065683,-0.0111226
1.0875000,1.0875000,1.0875000,-0.0053316,-0.0010743,-0.1490453,-0.0053316,-0.0064921,-0.0109569
1.0900000,1.0900000,1.0900000,-0.0052578,-0.0010670,-0.1480116,-0.0052578,-0.0064171,-0.0107940
1.0925000,1.0925000,1.0925000,-0.0051853,-0.0010598,-0.1469875,-0.0051853,-0.0063431,-0.0106337
1.0950000,1.0950000,1.0950000,-0.0051139,-0.0010526,-0.1459728,-0.0051139,-0.0062703,-0.0104761
1.0975000,1.0975000,1.0975000,-0.0050437,-0.0010455,-0.1449674,-0.0050437,-0.0061985,-0.0103211
1.1000000,1.1000000,1.1000000,-0.0049746,-0.0010385,-0.1439713,-0.0049746,-0.0061278,-0.0101687
1.1025000,1.1025000,1.1025000,-0.0049066,-0.0010315,-0.1429842,-0.0049066,-0.0060580,-0.0100187
1.1050000,1.1050000,1.1050000,-0.0048397,-0.0010246,-0.1420063,-0.0048397,-0.0059893,-0.0098712
1.1075000,1.1075000,1.1075000,-0.0047738,-0.0010178,-0.1410372,-0.0047738,-0.0059216,-0.0097262
1.1100000,1.1100000,1.1100000,-0.0047090,-0.0010110,-0.1400769,-0.0047090,-0.0058549,-0.0095835
1.1125000,1.1125000,1.1125000,-0.0046452,-0.0010043,-0.1391254,-0.0046452,-0.0057892,-0.0094431
1.1150000,1.1150000,1.1150000,-0.0045825,-0.0009976,-0.1381825,-0.0045825,-0.0057243,-0.0093050
1.1175000,1.1175000,1.1175000,-0.0045207,-0.0009910,-0.1372481,-0.0045207,-0.0056604,-0.0091691
1.1200000,1.1200000,1.1200000,-0.0044598,-0.0009845,-0.1363221,-0.0044598,-0.0055975,-0.0090355
1.1225000,1.1225000,1.1225000,-0.0044000,-0.0009780,-0.1354045,-0.0044000,-0.0055354,-0.0089040
1.1250000,1.1250000,1.1250000,-0.0043411,-0.0009715,-0.1344951,-0.0043411,-0.0054742,-0.0087746
1.1275000,1.1275000,1.1275000,-0.0042830,-0.0009652,-0.1335938,-0.0042830,-0.0054138,-0.0086473
1.1300000,1.1300000,1.1300000,-0.0042259,-0.0009588,-0.1327006,-0.0042259,-0.0053543,-0.0085220
1.1325000,1.1325000,1.1325000,-0.0041697,-0.0009526,-0.1318154,-0.0041697,-0.0052957,-0.0083988
1.1350000,1.1350000,1.1350000,-0.0041144,-0.0009464,-0.1309380,-0.0041144,-0.0052379,-0.0082775
1.1375000,1.1375000,1.1375000,-0.0040599,-0.0009402,-0.1300684,-0.0040599,-0.0051809,-0.0081582
1.1400000,1.1400000,1.1400000,-0.0040062,-0.0009341,-0.1292065,-0.0040062,-0.0051246,-0.0080408
1.1425000,1.1425000,1.1425000,-0.0039534,-0.0009280,-0.1283523,-0.0039534,-0.0050692,-0.0079252
1.1450000,1.1450000,1.1450000,-0.0039014,-0.0009220,-0.1275055,-0.0039014,-0.0050145,-0.0078115
1.1475000,1.1475000,1.1475000,-0.0038502,-0.0009161,-0.1266662,-0.0038502,-0.0049606,-0.0076995
1.1500000,1.1500000,1.1500000,-0.0037998,-0.0009102,-0.1258343,-0.0037998,-0.0049074,-0.0075894
1.1525000,1.1525000,1.1525000,-0.0037501,-0.0009043,-0.1250097,-0.0037501,-0.0048550,-0.0074809
1.1550000,1.1550000,1.1550000,-0.0037012,-0.0008985,-0.1241922,-0.0037012,-0.0048033,-0.0073742
1.1575000,1.1575000,1.1575000,-0.0036530,-0.0008928,-0.1233819,-0.0036530,-0.0047523,-0.0072692
1.1600000,1.1600000,1.1600000,-0.0036056,-0.0008871,-0.1225787,-0.0036056,-0.0047020,-0.0071658
1.1625000,1.1625000,1.1625000,-0.0035589,-0.0008814,-0.1217824,-0.0035589,-0.0046524,-0.0070640
1.1650000,1.1650000,1.1650000,-0.0035129,-0.0008758,-0.1209930,-0.0035129,-0.0046034,-0.0069639
1.1675000,1.1675000,1.1675000,-0.0034676,-0.0008703,-0.1202104,-0.0034676,-0.0045551,-0.0068652
1.1700000,1.1700000,1.1700000,-0.0034229,-0.0008648,-0.1194346,-0.0034229,-0.0045075,-0.0067682
1.1725000,1.1725000,1.1725000,-0.0033790,-0.0008593,-0.1186655,-0.0033790,-0.0044605,-0.0066726
1.1750000,1.1750000,1.1750000,-0.0033357,-0.0008539,-0.1179029,-0.0033357,-0.0044141,-0.0065785
1.1775000,1.1775000,1.1775000,-0.0032930,-0.0008485,-0.1171469,-0.0032930,-0.0043684,-0.0064859
1.1800000,1.1800000,1.1800000,-0.0032510,-0.0008432,-0.1163974,-0.0032510,-0.0043233,-0.0063947
1.1825000,1.1825000,1.1825000,-0.0032096,-0.0008379,-0.1156542,-0.0032096,-0.0042787,-0.0063049
1.1850000,1.1850000,1.1850000,-0.0031688,-0.0008327,-0.1149174,-0.0031688,-0.0042348,-0.0062165
1.1875000,1.1875000,1.1875000,-0.0031286,-0.0008275,-0.1141868,-0.0031286,-0.0041914,-0.0061294
1.1900000,1.1900000,1.1900000,-0.0030890,-0.0008223,-0.1134624,-0.0030890,-0.0041487,-0.0060437
1.1925000,1.1925000,1.1925000,-0.0030500,-0.0008172,-0.1127442,-0.0030500,-0.0041064,-0.0059593
1.1950000,1.1950000,1.1950000,-0.0030116,-0.0008121,-0.1120320,-0.0030116,-0.0040648,-0.0058762
1.1975000,1.1975000,1.1975000,-0.0029737,-0.0008071,-0.1113258,-0.0029737,-0.0040237,-0.0057943
1.2000000,1.2000000,1.2000000,-0.0029364,-0.0008021,-0.1106256,-0.0029364,-0.0039831,-0.0057137
1.2025000,1.2025000,1.2025000,-0.0028997,-0.0007972,-0.1099312,-0.0028997,-0.0039430,-0.0056344
1.2050000,1.2050000,1.2050000,-0.0028634,-0.0007923,-0.1092426,-0.0028634,-0.0039035,-0.0055562
1.2075000,1.2075000,1.2075000,-0.0028277,-0.0007874,-0.1085598,-0.0028277,-0.0038645,-0.0054792
1.2100000,1.2100000,1.2100000,-0.0027926,-0.0007826,-0.1078827,-0.0027926,-0.0038260,-0.0054034
1.2125000,1.2125000,1.2125000,-0.0027579,-0.0007778,-0.1072112,-0.0027579,-0.0037880,-0.0053287
1.2150000,1.2150000,1.2150000,-0.0027237,-0.0007731,-0.1065452,-0.0027237,-0.0037505,-0.0052551
1.2175000,1.2175000,1.2175000,-0.0026900,-0.0007683,-0.1058848,-0.0026900,-0.0037134,-0.0051827
1.2200000,1.2200000,1.2200000,-0.0026568,-0.0007637,-0.1052299,-0.0026568,-0.0036769,-0.0051113
1.2225000,1.2225000,1.2225000,-0.0026241,-0.0007590,-0.1045803,-0.0026241,-0.0036408,-0.0050410
1.2250000,1.2250000,1.2250000,-0.0025919,-0.0007544,-0.1039361,-0.0025919,-0.0036051,-0.0049718
1.2275000,1.2275000,1.2275000,-0.0025601,-0.0007499,-0.1032972,-0.0025601,-0.0035700,-0.0049036
1.2300000,1.2300000,1.2300000,-0.0025288,-0.0007454,-0.1026635,-0.0025288,-0.0035352,-0.0048364
1.2325000,1.2325000,1.2325000,-0.0024979,-0.0007409,-0.1020350,-0.0024979,-0.0035009,-0.0047702
1.2350000,1.2350000,1.2350000,-0.0024675,-0.0007364,-0.1014116,-0.0024675,-0.0034671,-0.0047050
1.2375000,1.2375000,1.2375000,-0.0024374,-0.0007320,-0.1007934,-0.0024374,-0.0034336,-0.0046408
1.2400000,1.2400000,1.2400000,-0.0024079,-0.0007276,-0.1001801,-0.0024079,-0.0034006,-0.0045775
1.2425000,1.2425000,1.2425000,-0.0023787,-0.0007233,-0.0995718,-0.0023787,-0.0033680,-0.0045152
1.2450000,1.2450000,1.2450000,-0.0023499,-0.0007190,-0.0989684,-0.0023499,-0.0033358,-0.0044537
1.2475000,1.2475000,1.2475000,-0.0023216,-0.0007147,-0.0983699,-0.0023216,-0.0033040,-0.0043932
1.2500000,1.2500000,1.2500000,-0.0022936,-0.0007105,-0.0977763,-0.0022936,-0.0032726,-0.0043336
1.2525000,1.2525000,1.2525000,-0.0022661,-0.0007063,-0.0971874,-0.0022661,-0.0032416,-0.0042748
1.2550000,1.2550000,1.2550000,-0.0022389,-0.0007021,-0.0966032,-0.0022389,-0.0032109,-0.0042169
1.2575000,1.2575000,1.2575000,-0.0022121,-0.0006979,-0.0960237,-0.0022121,-0.0031807,-0.0041598
1.2600000,1.2600000,1.2600000,-0.0021857,-0.0006938,-0.0954489,-0.0021857,-0.0031508,-0.0041036
1.2625000,1.2625000,1.2625000,-0.0021596,-0.0006897,-0.0948786,-0.0021596,-0.0031213,-0.0040482
1.2650000,1.2650000,1.2650000,-0.0021340,-0.0006857,-0.0943129,-0.0021340,-0.0030921,-0.0039936
1.2675000,1.2675000,1.2675000,-0.0021086,-0.0006817,-0.0937517,-0.0021086,-0.0030633,-0.0039398
1.2700000,1.2700000,1.2700000,-0.0020836,-0.0006777,-0.0931949,-0.0020836,-0.0030349,-0.0038868
1.2725000,1.2725000,1.2725000,-0.0020590,-0.0006737,-0.0926425,-0.0020590,-0.0030068,-0.0038346
1.2750000,1.2750000,1.2750000,-0.0020347,-0.0006698,-0.0920945,-0.0020347,-0.0029790,-0.0037831
1.2775000,1.2775000,1.2775000,-0.0020107,-0.0006659,-0.0915509,-0.0020107,-0.0029516,-0.0037323
1.2800000,1.2800000,1.2800000,-0.0019871,-0.0006621,-0.0910115,-0.0019871,-0.0029245,-0.0036823
1.2825000,1.2825000,1.2825000,-0.0019638,-0.0006582,-0.0904763,-0.0019638,-0.0028977,-0.0036330
1.2850000,1.2850000,1.2850000,-0.0019408,-0.0006544,-0.0899453,-0.0019408,-0.0028712,-0.0035844
1.2875000,1.2875000,1.2875000,-0.0019181,-0.0006507,-0.0894185,-0.0019181,-0.0028451,-0.0035365
1.2900000,1.2900000,1.2900000,-0.0018958,-0.0006469,-0.0888958,-0.0018958,-0.0028193,-0.0034893
1.2925000,1.2925000,1.2925000,-0.0018737,-0.0006432,-0.0883772,-0.0018737,-0.0027938,-0.0034427
1.2950000,1.2950000,1.2950000,-0.0018519,-0.0006395,-0.0878626,-0.0018519,-0.0027685,-0.0033969
1.2975000,1.2975000,1.2975000,-0.0018305,-0.0006359,-0.0873520,-0.0018305,-0.0027436,-0.0033516
1.3000000,1.3000000,1.3000000,-0.0018093,-0.0006322,-0.0868454,-0.0018093,-0.0027190,-0.0033071
1.3025000,1.3025000,1.3025000,-0.0017884,-0.0006286,-0.0863426,-0.0017884,-0.0026947,-0.0032631
1.3050000,1.3050000,1.3050000,-0.0017678,-0.0006250,-0.0858438,-0.0017678,-0.0026706,-0.0032198
1.3075000,1.3075000,1.3075000,-0.0017474,-0.0006215,-0.0853488,-0.0017474,-0.0026469,-0.0031771
1.3100000,1.3100000,1.3100000,-0.0017274,-0.0006180,-0.0848576,-0.0017274,-0.0026234,-0.0031350
1.3125000,1.3125000,1.3125000,-0.0017076,-0.0006145,-0.0843702,-0.0017076,-0.0026001,-0.0030935
1.3150000,1.3150000,1.3150000,-0.0016880,-0.0006110,-0.0838865,-0.0016880,-0.0025772,-0.0030526
1.3175000,1.3175000,1.3175000,-0.0016688,-0.0006076,-0.0834065,-0.0016688,-0.0025545,-0.0030122
1.3200000,1.3200000,1.3200000,-0.0016497,-0.0006041,-0.0829301,-0.0016497,-0.0025321,-0.0029724
1.3225000,1.3225000,1.3225000,-0.0016310,-0.0006007,-0.0824574,-0.0016310,-0.0025099,-0.0029332
1.3250000,1.3250000,1.3250000,-0.0016125,-0.0005974,-0.0819883,-0.0016125,-0.0024880,-0.0028945
1.3275000,1.3275000,1.3275000,-0.0015942,-0.0005940,-0.0815227,-0.0015942,-0.0024664,-0.0028564
1.3300000,1.3300000,1.3300000,-0.0015762,-0.0005907,-0.0810607,-0.0015762,-0.0024450,-0.0028188
1.3325000,1.3325000,1.3325000,-0.0015584,-0.0005874,-0.0806022,-0.0015584,-0.0024238,-0.0027817
1.3350000,1.3350000,1.3350000,-0.0015408,-0.0005841,-0.0801471,-0.0015408,-0.0024029,-0.0027452
1.3375000,1.3375000,1.3375000,-0.0015235,-0.0005809,-0.0796954,-0.0015235,-0.0023822,-0.0027091
1.3400000,1.3400000,1.3400000,-0.0015064,-0.0005777,-0.0792471,-0.0015064,-0.0023618,-0.0026736
1.3425000,1.3425000,1.3425000,-0.0014895,-0.0005745,-0.0788022,-0.0014895,-0.0023416,-0.0026385
1.3450000,1.3450000,1.3450000,-0.0014729,-0.0005713,-0.0783606,-0.0014729,-0.0023216,-0.0026039
1.3475000,1.3475000,1.3475000,-0.0014564,-0.0005682,-0.0779223,-0.0014564,-0.0023018,-0.0025698
1.3500000,1.3500000,1.3500000,-0.0014402,-0.0005650,-0.0774873,-0.0014402,-0.0022823,-0.0025362
1.3525000,1.3525000,1.3525000,-0.0014242,-0.0005619,-0.0770556,-0.0014242,-0.0022630,-0.0025030
1.3550000,1.3550000,1.3550000,-0.0014084,-0.0005588,-0.0766270,-0.0014084,-0.0022439,-0.0024703
1.3575000,1.3575000,1.3575000,-0.0013928,-0.0005558,-0.0762016,-0.0013928,-0.0022250,-0.0024381
1.3600000,1.3600000,1.3600000,-0.0013774,-0.0005528,-0.0757793,-0.0013774,-0.0022063,-0.0024063
1.3625000,1.3625000,1.3625000,-0.0013622,-0.0005497,-0.0753602,-0.0013622,-0.0021878,-0.0023749
1.3650000,1.3650000,1.3650000,-0.0013472,-0.0005467,-0.0749442,-0.0013472,-0.0021695,-0.0023439
1.3675000,1.3675000,1.3675000,-0.0013324,-0.0005438,-0.0745312,-0.0013324,-0.0021515,-0.0023134
1.3700000,1.3700000,1.3700000,-0.0013178,-0.0005408,-0.0741213,-0.0013178,-0.0021336,-0.0022833
1.3725000,1.3725000,1.3725000,-0.0013033,-0.0005379,-0.0737143,-0.0013033,-0.0021159,-0.0022536
1.3750000,1.3750000,1.3750000,-0.0012891,-0.0005350,-0.0733104,-0.0012891,-0.0020984,-0.0022243
1.3775000,1.3775000,1.3775000,-0.0012750,-0.0005321,-0.0729094,-0.0012750,-0.0020812,-0.0021954
1.3800000,1.3800000,1.3800000,-0.0012611,-0.0005292,-0.0725113,-0.0012611,-0.0020641,-0.0021669
1.3825000,1.3825000,1.3825000,-0.0012474,-0.0005264,-0.0721161,-0.0012474,-0.0020471,-0.0021388
1.3850000,1.3850000,1.3850000,-0.0012339,-0.0005236,-0.0717238,-0.0012339,-0.0020304,-0.0021110
1.3875000,1.3875000,1.3875000,-0.0012205,-0.0005208,-0.0713343,-0.0012205,-0.0020139,-0.0020836
1.3900000,1.3900000,1.3900000,-0.0012073,-0.0005180,-0.0709477,-0.0012073,-0.0019975,-0.0020566
1.3925000,1.3925000,1.3925000,-0.0011943,-0.0005152,-0.0705638,-0.0011943,-0.0019813,-0.0020300
1.3950000,1.3950000,1.3950000,-0.0011814,-0.0005125,-0.0701827,-0.0011814,-0.0019653,-0.0020037
1.3975000,1.3975000,1.3975000,-0.0011687,-0.0005097,-0.0698044,-0.0011687,-0.0019494,-0.0019778
1.4000000,1.4000000,1.4000000,-0.0011561,-0.0005070,-0.0694288,-0.0011561,-0.0019337,-0.0019522
1.4025000,1.4025000,1.4025000,-0.0011437,-0.0005043,-0.0690558,-0.0011437,-0.0019182,-0.0019270
1.4050000,1.4050000,1.4050000,-0.0011315,-0.0005017,-0.0686856,-0.0011315,-0.0019029,-0.0019021
1.4075000,1.4075000,1.4075000,-0.0011194,-0.0004990,-0.0683179,-0.0011194,-0.0018877,-0.0018775
1.4100000,1.4100000,1.4100000,-0.0011075,-0.0004964,-0.0679529,-0.0011075,-0.0018727,-0.0018533
1.4125000,1.4125000,1.4125000,-0.0010957,-0.0004938,-0.0675906,-0.0010957,-0.0018578,-0.0018294
1.4150000,1.4150000,1.4150000,-0.0010841,-0.0004912,-0.0672307,-0.0010841,-0.0018431,-0.0018058
1.4175000,1.4175000,1.4175000,-0.0010726,-0.0004886,-0.0668735,-0.0010726,-0.0018286,-0.0017825
1.4200000,1.4200000,1.4200000,-0.0010612,-0.0004860,-0.0665187,-0.0010612,-0.0018142,-0.0017595
1.4225000,1.4225000,1.4225000,-0.0010500,-0.0004835,-0.0661665,-0.0010500,-0.0017999,-0.0017369
1.4250000,1.4250000,1.4250000,-0.0010389,-0.0004810,-0.0658168,-0.0010389,-0.0017858,-0.0017145
1.4275000,1.4275000,1.4275000,-0.0010280,-0.0004785,-0.0654695,-0.0010280,-0.0017719,-0.0016924
1.4300000,1.4300000,1.4300000,-0.0010172,-0.0004760,-0.0651247,-0.0010172,-0.0017580,-0.0016706
1.4325000,1.4325000,1.4325000,-0.0010065,-0.0004735,-0.0647823,-0.0010065,-0.0017444,-0.0016491
1.4350000,1.4350000,1.4350000,-0.0009960,-0.0004711,-0.0644422,-0.0009960,-0.0017309,-0.0016279
1.4375000,1.4375000,1.4375000,-0.0009855,-0.0004686,-0.0641046,-0.0009855,-0.0017175,-0.0016070
1.4400000,1.4400000,1.4400000,-0.0009753,-0.0004662,-0.0637693,-0.0009753,-0.0017042,-0.0015863
1.4425000,1.4425000,1.4425000,-0.0009651,-0.0004638,-0.0634364,-0.0009651,-0.0016911,-0.0015659
1.4450000,1.4450000,1.4450000,-0.0009551,-0.0004614,-0.0631058,-0.0009551,-0.0016781,-0.0015458
1.4475000,1.4475000,1.4475000,-0.0009451,-0.0004590,-0.0627775,-0.0009451,-0.0016653,-0.0015260
1.4500000,1.4500000,1.4500000,-0.0009353,-0.0004567,-0.0624514,-0.0009353,-0.0016526,-0.0015064
1.4525000,1.4525000,1.4525000,-0.0009257,-0.0004543,-0.0621276,-0.0009257,-0.0016400,-0.0014870
1.4550000,1.4550000,1.4550000,-0.0009161,-0.0004520,-0.0618061,-0.0009161,-0.0016276,-0.0014679
1.4575000,1.4575000,1.4575000,-0.0009067,-0.0004497,-0.0614867,-0.0009067,-0.0016152,-0.0014491
1.4600000,1.4600000,1.4600000,-0.0008973,-0.0004474,-0.0611696,-0.0008973,-0.0016030,-0.0014305
1.4625000,1.4625000,1.4625000,-0.0008881,-0.0004451,-0.0608546,-0.0008881,-0.0015909,-0.0014121
1.4650000,1.4650000,1.4650000,-0.0008790,-0.0004429,-0.0605418,-0.0008790,-0.0015790,-0.0013940
1.4675000,1.4675000,1.4675000,-0.0008700,-0.0004406,-0.0602312,-0.0008700,-0.0015671,-0.0013761
1.4700000,1.4700000,1.4700000,-0.0008611,-0.0004384,-0.0599227,-0.0008611,-0.0015554,-0.0013585
1.4725000,1.4725000,1.4725000,-0.0008523,-0.0004362,-0.0596163,-0.0008523,-0.0015438,-0.0013411
1.4750000,1.4750000,1.4750000,-0.0008436,-0.0004340,-0.0593119,-0.0008436,-0.0015323,-0.0013239
1.4775000,1.4775000,1.4775000,-0.0008351,-0.0004318,-0.0590097,-0.0008351,-0.0015210,-0.0013069
1.4800000,1.4800000,1.4800000,-0.0008266,-0.0004296,-0.0587095,-0.0008266,-0.0015097,-0.0012901
1.4825000,1.4825000,1.4825000,-0.0008182,-0.0004275,-0.0584113,-0.0008182,-0.0014986,-0.0012736
1.4850000,1.4850000,1.4850000,-0.0008099,-0.0004253,-0.0581151,-0.0008099,-0.0014875,-0.0012572
1.4875000,1.4875000,1.4875000,-0.0008017,-0.0004232,-0.0578210,-0.0008017,-0.0014766,-0.0012411
1.4900000,1.4900000,1.4900000,-0.0007937,-0.0004211,-0.0575288,-0.0007937,-0.0014658,-0.0012252
1.4925000,1.4925000,1.4925000,-0.0007857,-0.0004190,-0.0572386,-0.0007857,-0.0014551,-0.0012095
1.4950000,1.4950000,1.4950000,-0.0007778,-0.0004169,-0.0569504,-0.0007778,-0.0014444,-0.0011940
1.4975000,1.4975000,1.4975000,-0.0007700,-0.0004148,-0.0566641,-0.0007700,-0.0014339,-0.0011787
1.5000000,1.5000000,1.5000000,-0.0007622,-0.0004128,-0.0563797,-0.0007622,-0.0014235,-0.0011635
1.5025000,1.5025000,1.5025000,-0.0007546,-0.0004107,-0.0560972,-0.0007546,-0.0014132,-0.0011486
1.5050000,1.5050000,1.5050000,-0.0007471,-0.0004087,-0.0558166,-0.0007471,-0.0014030,-0.0011339
1.5075000,1.5075000,1.5075000,-0.0007396,-0.0004067,-0.0555378,-0.0007396,-0.0013929,-0.0011193
1.5100000,1.5100000,1.5100000,-0.0007323,-0.0004047,-0.0552610,-0.0007323,-0.0013829,-0.0011050
1.5125000,1.5125000,1.5125000,-0.0007250,-0.0004027,-0.0549859,-0.0007250,-0.0013730,-0.0010908
1.5150000,1.5150000,1.5150000,-0.0007178,-0.0004007,-0.0547127,-0.0007178,-0.0013632,-0.0010768
1.5175000,1.5175000,1.5175000,-0.0007107,-0.0003987,-0.0544413,-0.0007107,-0.0013535,-0.0010629
1.5200000,1.5200000,1.5200000,-0.0007037,-0.0003968,-0.0541717,-0.0007037,-0.0013438,-0.0010493
1.5225000,1.5225000,1.5225000,-0.0006967,-0.0003948,-0.0539039,-0.0006967,-0.0013343,-0.0010358
1.5250000,1.5250000,1.5250000,-0.0006899,-0.0003929,-0.0536378,-0.0006899,-0.0013249,-0.0010225
1.5275000,1.5275000,1.5275000,-0.0006831,-0.0003910,-0.0533735,-0.0006831,-0.0013155,-0.0010094
1.5300000,1.5300000,1.5300000,-0.0006764,-0.0003891,-0.0531109,-0.0006764,-0.0013062,-0.0009964
1.5325000,1.5325000,1.5325000,-0.0006698,-0.0003872,-0.0528500,-0.0006698,-0.0012971,-0.0009836
1.5350000,1.5350000,1.5350000,-0.0006632,-0.0003853,-0.0525909,-0.0006632,-0.0012880,-0.0009709
1.5375000,1.5375000,1.5375000,-0.0006567,-0.0003835,-0.0523334,-0.0006567,-0.0012790,-0.0009584
1.5400000,1.5400000,1.5400000,-0.0006503,-0.0003816,-0.0520776,-0.0006503,-0.0012700,-0.0009461
1.5425000,1.5425000,1.5425000,-0.0006440,-0.0003798,-0.0518235,-0.0006440,-0.0012612,-0.0009339
1.5450000,1.5450000,1.5450000,-0.0006377,-0.0003779,-0.0515711,-0.0006377,-0.0012524,-0.0009219
1.5475000,1.5475000,1.5475000,-0.0006315,-0.0003761,-0.0513203,-0.0006315,-0.0012438,-0.0009100
1.5500000,1.5500000,1.5500000,-0.0006254,-0.0003743,-0.0510711,-0.0006254,-0.0012352,-0.0008983
1.5525000,1.5525000,1.5525000,-0.0006194,-0.0003725,-0.0508235,-0.0006194,-0.0012267,-0.0008867
1.5550000,1.5550000,1.5550000,-0.0006134,-0.0003707,-0.0505775,-0.0006134,-0.0012182,-0.0008752
1.5575000,1.5575000,1.5575000,-0.0006075,-0.0003690,-0.0503331,-0.0006075,-0.0012099,-0.0008639
1.5600000,1.5600000,1.5600000,-0.0006016,-0.0003672,-0.0500903,-0.0006016,-0.0012016,-0.0008528
1.5625000,1.5625000,1.5625000,-0.0005958,-0.0003654,-0.0498490,-0.0005958,-0.0011934,-0.0008417
1.5650000,1.5650000,1.5650000,-0.0005901,-0.0003637,-0.0496093,-0.0005901,-0.0011853,-0.0008309
1.5675000,1.5675000,1.5675000,-0.0005845,-0.0003620,-0.0493712,-0.0005845,-0.0011772,-0.0008201
1.5700000,1.5700000,1.5700000,-0.0005789,-0.0003603,-0.0491345,-0.0005789,-0.0011692,-0.0008095
1.5725000,1.5725000,1.5725000,-0.0005733,-0.0003585,-0.0488994,-0.0005733,-0.0011613,-0.0007990
1.5750000,1.5750000,1.5750000,-0.0005679,-0.0003569,-0.0486657,-0.0005679,-0.0011535,-0.0007886
1.5775000,1.5775000,1.5775000,-0.0005625,-0.0003552,-0.0484336,-0.0005625,-0.0011457,-0.0007784
1.5800000,1.5800000,1.5800000,-0.0005571,-0.0003535,-0.0482029,-0.0005571,-0.0011380,-0.0007683
1.5825000,1.5825000,1.5825000,-0.0005518,-0.0003518,-0.0479737,-0.0005518,-0.0011304,-0.0007583
1.5850000,1.5850000,1.5850000,-0.0005466,-0.0003502,-0.0477459,-0.0005466,-0.0011229,-0.0007485
1.5875000,1.5875000,1.5875000,-0.0005414,-0.0003485,-0.0475196,-0.0005414,-0.0011154,-0.0007387
1.5900000,1.5900000,1.5900000,-0.0005363,-0.0003469,-0.0472947,-0.0005363,-0.0011080,-0.0007291
1.5925000,1.5925000,1.5925000,-0.0005313,-0.0003453,-0.0470713,-0.0005313,-0.0011006,-0.0007196
1.5950000,1.5950000,1.5950000,-0.0005263,-0.0003437,-0.0468492,-0.0005263,-0.0010933,-0.0007103
1.5975000,1.5975000,1.5975000,-0.0005213,-0.0003421,-0.0466286,-0.0005213,-0.0010861,-0.0007010
