# r[nm],d[nm],daligned[nm],U(d)[kj/mol],V(d)[e/nm],Uslab(d)[kJ/mol],UC(d)[kJ/mol],UK(d)[kJ/mol],UCl(d)[kJ/mol]
0.1875000,0.1875000,0.1875000,1851.3021098,0.0120482,186.1776484,1851.3021098,1168.7840803,inf
0.1900000,0.1900000,0.1900000,1599.7689103,0.0004394,161.5130640,1599.7689103,1008.8927467,inf
0.1925000,0.1925000,0.1925000,1384.8036822,-0.0011987,140.0359915,1384.8036822,872.2903822,inf
0.1950000,0.1950000,0.1950000,1200.6733920,-0.0027136,121.3137084,1200.6733920,755.3535418,inf
0.1975000,0.1975000,0.1975000,1042.6483728,-0.0041164,104.9763377,1042.6483728,655.0590048,inf
0.2000000,0.2000000,0.2000000,906.7722461,-0.0054182,90.7069911,906.7722461,568.8783606,inf
0.2025000,0.2025000,0.2025000,789.7276278,-0.0066301,78.2335988,789.7276278,494.6921964,inf
0.2050000,0.2050000,0.2050000,688.7265020,-0.0077628,67.3221108,688.7265020,430.7200425,inf
0.2075000,0.2075000,0.2075000,601.4205179,-0.0088262,57.7708176,601.4205179,375.4630078,inf
0.2100000,0.2100000,0.2100000,525.8274125,-0.0098290,49.4055864,525.8274125,327.6566609,inf
0.2125000,0.2125000,0.2125000,460.2705081,-0.0107777,42.0758501,460.2705081,286.2322110,inf
0.2150000,0.2150000,0.2150000,403.3288229,-0.0116770,35.6512205,403.3288229,250.2844366,1719.2571242
0.2175000,0.2175000,0.2175000,353.7958122,-0.0125290,30.0186187,353.7958122,219.0451278,1513.4140873
0.2200000,0.2200000,0.2200000,310.6451404,-0.0133341,25.0798394,310.6451404,191.8610511,1333.7822137
0.2225000,0.2225000,0.2225000,273.0021992,-0.0140911,20.7494787,273.0021992,168.1756365,1176.7941220
0.2250000,0.2250000,0.2250000,240.1203453,-0.0147979,16.9531673,240.1203453,147.5137379,1039.4008131
0.2275000,0.2275000,0.2275000,211.3610298,-0.0154526,13.6260605,211.3610298,129.4689323,918.9914675
0.2300000,0.2300000,0.2300000,186.1771564,-0.0160533,10.7115470,186.1771564,113.6929186,813.3263683
0.2325000,0.2325000,0.2325000,164.0991257,-0.0165992,8.1601399,164.0991257,99.8866546,720.4806956
0.2350000,0.2350000,0.2350000,144.7231215,-0.0170902,5.9285222,144.7231215,87.7929318,638.7973491
0.2375000,0.2375000,0.2375000,127.7012685,-0.0175272,3.9787236,127.7012685,77.1901424,566.8472876
0.2400000,0.2400000,0.2400000,112.7333526,-0.0179119,2.2774092,112.7333526,67.8870340,503.3961368
0.2425000,0.2425000,0.2425000,99.5598468,-0.0182467,0.7952637,99.5598468,59.7182865,447.3760286
0.2450000,0.2450000,0.2450000,87.9560255,-0.0185344,-0.4935386,87.9560255,52.5407718,397.8618054
0.2475000,0.2475000,0.2475000,77.7269881,-0.0187779,-1.6117915,77.7269881,46.2303854,354.0508620
0.2500000,0.2500000,0.2500000,68.7034417,-0.0189804,-2.5796477,68.7034417,40.6793558,315.2460194
0.2525000,0.2525000,0.2525000,60.7381199,-0.0191446,-3.4149519,60.7381199,35.7939571,280.8409274
0.2550000,0.2550000,0.2550000,53.7027329,-0.0192730,-4.1335236,53.7027329,31.4925627,250.3075836
0.2575000,0.2575000,0.2575000,47.4853660,-0.0193672,-4.7493959,47.4853660,27.7039844,223.1856344
0.2600000,0.2600000,0.2600000,41.9882554,-0.0194282,-5.2750201,41.9882554,24.3660551,199.0731864
0.2625000,0.2625000,0.2625000,37.1258839,-0.0194557,-5.7214411,37.1258839,21.4244142,177.6189085
0.2650000,0.2650000,0.2650000,32.8233484,-0.0194485,-6.0984508,32.8233484,18.8314622,158.5152418
0.2675000,0.2675000,0.2675000,29.0149583,-0.0194043,-6.4147229,29.0149583,16.5454598,141.4925625
0.2700000,0.2700000,0.2700000,25.6430313,-0.0193205,-6.6779331,25.6430313,14.5297472,126.3141658
0.2725000,0.2725000,0.2725000,22.6568544,-0.0191938,-6.8948668,22.6568544,12.7520671,112.7719556
0.2750000,0.2750000,0.2750000,20.0117868,-0.0190208,-7.0715203,20.0117868,11.1839802,100.6827367
0.2775000,0.2775000,0.2775000,17.6684816,-0.0187985,-7.2131980,17.6684816,9.8003629,89.8850244
0.2800000,0.2800000,0.2800000,15.5922096,-0.0185247,-7.3246071,15.5922096,8.5789794,80.2362940
0.2825000,0.2825000,0.2825000,13.7522712,-0.0181983,-7.4099487,13.7522712,7.5001265,71.6106052
0.2850000,0.2850000,0.2850000,12.1214838,-0.0178201,-7.4729974,12.1214838,6.5463417,63.8965469
0.2875000,0.2875000,0.2875000,10.6757392,-0.0173932,-7.5171610,10.6757392,5.7021705,56.9954540
0.2900000,0.2900000,0.2900000,9.3936212,-0.0169233,-7.5455128,9.3936212,4.9539805,50.8198586
0.2925000,0.2925000,0.2925000,8.2560821,-0.0164197,-7.5607929,8.2560821,4.2898108,45.2921404
0.2950000,0.2950000,0.2950000,7.2461705,-0.0158943,-7.5653865,7.2461705,3.6992400,40.3433496
0.2975000,0.2975000,0.2975000,6.3488089,-0.0153622,-7.5612923,6.3488089,3.1732607,35.9121784
0.3000000,0.3000000,0.3000000,5.5506118,-0.0148400,-7.5501009,5.5506118,2.7041486,31.9440611
0.3025000,0.3025000,0.3025000,4.8397380,-0.0143451,-7.5329978,4.8397380,2.2853226,28.3903852
0.3050000,0.3050000,0.3050000,4.2057652,-0.0138936,-7.5108005,4.2057652,1.9111952,25.2078004
0.3075000,0.3075000,0.3075000,3.6395775,-0.0134990,-7.4840240,3.6395775,1.5770207,22.3576110
0.3100000,0.3100000,0.3100000,3.1332546,-0.0131705,-7.4529627,3.1332546,1.2787488,19.8052419
0.3125000,0.3125000,0.3125000,2.6799579,-0.0129122,-7.4177719,2.6799579,1.0128900,17.5197688
0.3150000,0.3150000,0.3150000,2.2738101,-0.0127222,-7.3785363,2.2738101,0.7764010,15.4735038
0.3175000,0.3175000,0.3175000,1.9097706,-0.0125934,-7.3353189,1.9097706,0.5665890,13.6416304
0.3200000,0.3200000,0.3200000,1.5835115,-0.0125143,-7.2881948,1.5835115,0.3810384,12.0018813
0.3225000,0.3225000,0.3225000,1.2913004,-0.0124702,-7.2372724,1.2913004,0.2175549,10.5342555
0.3250000,0.3250000,0.3250000,1.0298935,-0.0124460,-7.1827092,1.0298935,0.0741263,9.2207687
0.3275000,0.3275000,0.3275000,0.7964434,-0.0124267,-7.1247214,0.7964434,-0.0511054,8.0452362
0.3300000,0.3300000,0.3300000,0.5884221,-0.0124001,-7.0635903,0.5884221,-0.1598628,6.9930850
0.3325000,0.3325000,0.3325000,0.4035595,-0.0123565,-6.9996640,0.4035595,-0.2537482,6.0511922
0.3350000,0.3350000,0.3350000,0.2397945,-0.0122891,-6.9333509,0.2397945,-0.3342546,5.2077481
0.3375000,0.3375000,0.3375000,0.0952391,-0.0121933,-6.8651041,0.0952391,-0.4027768,4.4521414
0.3400000,0.3400000,0.3400000,-0.0318492,-0.0120657,-6.7953944,-0.0318492,-0.4606194,3.7748608
0.3425000,0.3425000,0.3425000,-0.1430872,-0.0119024,-6.7246740,-0.1430872,-0.5090054,3.1674114
0.3450000,0.3450000,0.3450000,-0.2399819,-0.0116989,-6.6533420,-0.2399819,-0.5490822,2.6222381
0.3475000,0.3475000,0.3475000,-0.3239414,-0.0114493,-6.5817212,-0.3239414,-0.5819283,2.1326531
0.3500000,0.3500000,0.3500000,-0.3962836,-0.0111473,-6.5100599,-0.3962836,-0.6085598,1.6927645
0.3525000,0.3525000,0.3525000,-0.4582421,-0.0107867,-6.4385594,-0.4582421,-0.6299360,1.2974024
0.3550000,0.3550000,0.3550000,-0.5109716,-0.0103631,-6.3674178,-0.5109716,-0.6469630,0.9420444
0.3575000,0.3575000,0.3575000,-0.5555534,-0.0098743,-6.2968708,-0.5555534,-0.6604944,0.6227398
0.3600000,0.3600000,0.3600000,-0.5930012,-0.0093210,-6.2272126,-0.5930012,-0.6713296,0.3360360
0.3625000,0.3625000,0.3625000,-0.6242669,-0.0087067,-6.1587853,-0.6242669,-0.6802082,0.0789065
0.3650000,0.3650000,0.3650000,-0.6502461,-0.0080374,-6.0919420,-0.6502461,-0.6878016,-0.1513150
0.3675000,0.3675000,0.3675000,-0.6717808,-0.0073214,-6.0269939,-0.6717808,-0.6947024,-0.3569951
0.3700000,0.3700000,0.3700000,-0.6896609,-0.0065681,-5.9641591,-0.6896609,-0.7014113,-0.5402529
0.3725000,0.3725000,0.3725000,-0.7046230,-0.0057885,-5.9035257,-0.7046230,-0.7083263,-0.7030050
0.3750000,0.3750000,0.3750000,-0.7173476,-0.0049936,-5.8450382,-0.7173476,-0.7157338,-0.8470014
0.3775000,0.3775000,0.3775000,-0.7284537,-0.0041941,-5.7885068,-0.7284537,-0.7238063,-0.9738540
0.3800000,0.3800000,0.3800000,-0.7384913,-0.0034001,-5.7336386,-0.7384913,-0.7326079,-1.0850579
0.3825000,0.3825000,0.3825000,-0.7479324,-0.0026204,-5.6800795,-0.7479324,-0.7421063,-1.1820066
0.3850000,0.3850000,0.3850000,-0.7571615,-0.0018629,-5.6274616,-0.7571615,-0.7521905,-1.2660026
0.3875000,0.3875000,0.3875000,-0.7664685,-0.0011353,-5.5754436,-0.7664685,-0.7626899,-1.3382651
0.3900000,0.3900000,0.3900000,-0.7760448,-0.0004453,-5.5237378,-0.7760448,-0.7733948,-1.3999357
0.3925000,0.3925000,0.3925000,-0.7859857,0.0001983,-5.4721211,-0.7859857,-0.7840749,-1.4520840
0.3950000,0.3950000,0.3950000,-0.7962978,0.0007860,-5.4204300,-0.7962978,-0.7944960,-1.4957129
0.3975000,0.3975000,0.3975000,-0.8069122,0.0013081,-5.3685482,-0.8069122,-0.8044335,-1.5317631
0.4000000,0.4000000,0.4000000,-0.8176995,0.0017552,-5.3163960,-0.8176995,-0.8136836,-1.5611176
0.4025000,0.4025000,0.4025000,-0.8284883,0.0021195,-5.2639273,-0.8284883,-0.8220687,-1.5846050
0.4050000,0.4050000,0.4050000,-0.8390824,0.0023957,-5.2111378,-0.8390824,-0.8294403,-1.6030026
0.4075000,0.4075000,0.4075000,-0.8492776,0.0025817,-5.1580784,-0.8492776,-0.8356775,-1.6170382
0.4100000,0.4100000,0.4100000,-0.8588755,0.0026783,-5.1048675,-0.8588755,-0.8406840,-1.6273929
0.4125000,0.4125000,0.4125000,-0.8676935,0.0026899,-5.0516947,-0.8676935,-0.8443849,-1.6347019
0.4150000,0.4150000,0.4150000,-0.8755720,0.0026230,-4.9988146,-0.8755720,-0.8467238,-1.6395549
0.4175000,0.4175000,0.4175000,-0.8823766,0.0024863,-4.9465288,-0.8823766,-0.8476632,-1.6424946
0.4200000,0.4200000,0.4200000,-0.8879984,0.0022897,-4.8951593,-0.8879984,-0.8471860,-1.6440120
0.4225000,0.4225000,0.4225000,-0.8923529,0.0020437,-4.8450179,-0.8923529,-0.8452992,-1.6445403
0.4250000,0.4250000,0.4250000,-0.8953776,0.0017589,-4.7963729,-0.8953776,-0.8420379,-1.6444479
0.4275000,0.4275000,0.4275000,-0.8970318,0.0014458,-4.7494185,-0.8970318,-0.8374692,-1.6440312
0.4300000,0.4300000,0.4300000,-0.8972958,0.0011141,-4.7042509,-0.8972958,-0.8316931,-1.6435098
0.4325000,0.4325000,0.4325000,-0.8961726,0.0007727,-4.6608559,-0.8961726,-0.8248407,-1.6430243
0.4350000,0.4350000,0.4350000,-0.8936898,0.0004298,-4.6191140,-0.8936898,-0.8170699,-1.6426393
0.4375000,0.4375000,0.4375000,-0.8899009,0.0000925,-4.5788220,-0.8899009,-0.8085574,-1.6423493
0.4400000,0.4400000,0.4400000,-0.8848866,-0.0002332,-4.5397227,-0.8848866,-0.7994911,-1.6420896
0.4425000,0.4425000,0.4425000,-0.8787534,-0.0005422,-4.5015356,-0.8787534,-0.7900608,-1.6417489
0.4450000,0.4450000,0.4450000,-0.8716312,-0.0008306,-4.4639818,-0.8716312,-0.7804511,-1.6411845
0.4475000,0.4475000,0.4475000,-0.8636688,-0.0010951,-4.4267978,-0.8636688,-0.7708350,-1.6402363
0.4500000,0.4500000,0.4500000,-0.8550284,-0.0013335,-4.3897414,-0.8550284,-0.7613691,-1.6387403
0.4525000,0.4525000,0.4525000,-0.8458794,-0.0015442,-4.3525912,-0.8458794,-0.7521906,-1.6365396
0.4550000,0.4550000,0.4550000,-0.8363929,-0.0017259,-4.3151438,-0.8363929,-0.7434168,-1.6334921
0.4575000,0.4575000,0.4575000,-0.8267362,-0.0018778,-4.2772130,-0.8267362,-0.7351459,-1.6294768
0.4600000,0.4600000,0.4600000,-0.8170685,-0.0019991,-4.2386325,-0.8170685,-0.7274607,-1.6243959
0.4625000,0.4625000,0.4625000,-0.8075378,-0.0020887,-4.1992605,-0.8075378,-0.7204326,-1.6181771
0.4650000,0.4650000,0.4650000,-0.7982791,-0.0021454,-4.1589857,-0.7982791,-0.7141238,-1.6107728
0.4675000,0.4675000,0.4675000,-0.7894138,-0.0021673,-4.1177313,-0.7894138,-0.7085867,-1.6021603
0.4700000,0.4700000,0.4700000,-0.7810512,-0.0021524,-4.0754578,-0.7810512,-0.7038585,-1.5923401
0.4725000,0.4725000,0.4725000,-0.7732889,-0.0020994,-4.0321621,-0.7732889,-0.6999528,-1.5813347
0.4750000,0.4750000,0.4750000,-0.7662127,-0.0020080,-3.9878746,-0.7662127,-0.6968521,-1.5691876
0.4775000,0.4775000,0.4775000,-0.7598931,-0.0018803,-3.9426544,-0.7598931,-0.6945029,-1.5559615
0.4800000,0.4800000,0.4800000,-0.7543796,-0.0017214,-3.8965837,-0.7543796,-0.6928167,-1.5417370
0.4825000,0.4825000,0.4825000,-0.7496933,-0.0015391,-3.8497616,-0.7496933,-0.6916748,-1.5266120
0.4850000,0.4850000,0.4850000,-0.7458212,-0.0013435,-3.8022983,-0.7458212,-0.6909372,-1.5106995
0.4875000,0.4875000,0.4875000,-0.7427130,-0.0011465,-3.7543102,-0.7427130,-0.6904517,-1.4941270
0.4900000,0.4900000,0.4900000,-0.7402835,-0.0009596,-3.7059154,-0.7402835,-0.6900627,-1.4770341
0.4925000,0.4925000,0.4925000,-0.7384183,-0.0007935,-3.6572305,-0.7384183,-0.6896196,-1.4595706
0.4950000,0.4950000,0.4950000,-0.7369823,-0.0006565,-3.6083678,-0.7369823,-0.6889828,-1.4418943
0.4975000,0.4975000,0.4975000,-0.7358288,-0.0005539,-3.5594336,-0.7358288,-0.6880310,-1.4241682
0.5000000,0.5000000,0.5000000,-0.7348089,-0.0004884,-3.5105268,-0.7348089,-0.6866657,-1.4065580
0.5025000,0.5025000,0.5025000,-0.7337781,-0.0004593,-3.4617381,-0.7337781,-0.6848163,-1.3892292
0.5050000,0.5050000,0.5050000,-0.7326037,-0.0004640,-3.4131501,-0.7326037,-0.6824422,-1.3723432
0.5075000,0.5075000,0.5075000,-0.7311699,-0.0004978,-3.3648367,-0.7311699,-0.6795329,-1.3560514
0.5100000,0.5100000,0.5100000,-0.7293827,-0.0005547,-3.3168638,-0.7293827,-0.6761050,-1.3404888
0.5125000,0.5125000,0.5125000,-0.7271730,-0.0006282,-3.2692893,-0.7271730,-0.6721966,-1.3257656
0.5150000,0.5150000,0.5150000,-0.7244991,-0.0007117,-3.2221637,-0.7244991,-0.6678593,-1.3119595
0.5175000,0.5175000,0.5175000,-0.7213458,-0.0007991,-3.1755307,-0.7213458,-0.6631488,-1.2991100
0.5200000,0.5200000,0.5200000,-0.7177224,-0.0008848,-3.1294276,-0.7177224,-0.6581170,-1.2872148
0.5225000,0.5225000,0.5225000,-0.7136569,-0.0009643,-3.0838859,-0.7136569,-0.6528043,-1.2762311
0.5250000,0.5250000,0.5250000,-0.7091900,-0.0010342,-3.0389319,-0.7091900,-0.6472353,-1.2660796
0.5275000,0.5275000,0.5275000,-0.7043668,-0.0010924,-2.9945872,-0.7043668,-0.6414174,-1.2566513
0.5300000,0.5300000,0.5300000,-0.6992291,-0.0011379,-2.9508690,-0.6992291,-0.6353426,-1.2478160
0.5325000,0.5325000,0.5325000,-0.6938095,-0.0011708,-2.9077908,-0.6938095,-0.6289917,-1.2394310
0.5350000,0.5350000,0.5350000,-0.6881275,-0.0011921,-2.8653630,-0.6881275,-0.6223398,-1.2313498
0.5375000,0.5375000,0.5375000,-0.6821879,-0.0012034,-2.8235927,-0.6821879,-0.6153613,-1.2234298
0.5400000,0.5400000,0.5400000,-0.6759823,-0.0012068,-2.7824845,-0.6759823,-0.6080349,-1.2155395
0.5425000,0.5425000,0.5425000,-0.6694928,-0.0012043,-2.7420408,-0.6694928,-0.6003469,-1.2075642
0.5450000,0.5450000,0.5450000,-0.6626962,-0.0011979,-2.7022619,-0.6626962,-0.5922930,-1.1994106
0.5475000,0.5475000,0.5475000,-0.6555690,-0.0011894,-2.6631464,-0.6555690,-0.5838790,-1.1910090
0.5500000,0.5500000,0.5500000,-0.6480911,-0.0011803,-2.6246915,-0.6480911,-0.5751199,-1.1823138
0.5525000,0.5525000,0.5525000,-0.6402492,-0.0011717,-2.5868929,-0.6402492,-0.5660391,-1.1733009
0.5550000,0.5550000,0.5550000,-0.6320382,-0.0011643,-2.5497453,-0.6320382,-0.5566665,-1.1639641
0.5575000,0.5575000,0.5575000,-0.6234624,-0.0011586,-2.5132425,-0.6234624,-0.5470369,-1.1543093
0.5600000,0.5600000,0.5600000,-0.6145345,-0.0011550,-2.4773773,-0.6145345,-0.5371881,-1.1443485
0.5625000,0.5625000,0.5625000,-0.6052753,-0.0011533,-2.4421421,-0.6052753,-0.5271593,-1.1340940
0.5650000,0.5650000,0.5650000,-0.5957121,-0.0011534,-2.4075285,-0.5957121,-0.5169901,-1.1235543
0.5675000,0.5675000,0.5675000,-0.5858770,-0.0011552,-2.3735278,-0.5858770,-0.5067191,-1.1127305
0.5700000,0.5700000,0.5700000,-0.5758056,-0.0011585,-2.3401308,-0.5758056,-0.4963833,-1.1016164
0.5725000,0.5725000,0.5725000,-0.5655352,-0.0011628,-2.3073280,-0.5655352,-0.4860173,-1.0901984
0.5750000,0.5750000,0.5750000,-0.5551040,-0.0011680,-2.2751097,-0.5551040,-0.4756532,-1.0784584
0.5775000,0.5775000,0.5775000,-0.5445498,-0.0011738,-2.2434662,-0.5445498,-0.4653202,-1.0663766
0.5800000,0.5800000,0.5800000,-0.5339091,-0.0011799,-2.2123873,-0.5339091,-0.4550446,-1.0539340
0.5825000,0.5825000,0.5825000,-0.5232167,-0.0011861,-2.1818631,-0.5232167,-0.4448498,-1.0411159
0.5850000,0.5850000,0.5850000,-0.5125050,-0.0011923,-2.1518834,-0.5125050,-0.4347562,-1.0279138
0.5875000,0.5875000,0.5875000,-0.5018041,-0.0011982,-2.1224382,-0.5018041,-0.4247818,-1.0143262
0.5900000,0.5900000,0.5900000,-0.4911411,-0.0012039,-2.0935172,-0.4911411,-0.4149419,-1.0003599
0.5925000,0.5925000,0.5925000,-0.4805408,-0.0012091,-2.0651106,-0.4805408,-0.4052494,-0.9860295
0.5950000,0.5950000,0.5950000,-0.4700250,-0.0012138,-2.0372083,-0.4700250,-0.3957151,-0.9713568
0.5975000,0.5975000,0.5975000,-0.4596129,-0.0012179,-2.0098004,-0.4596129,-0.3863481,-0.9563699
0.6000000,0.6000000,0.6000000,-0.4493216,-0.0012215,-1.9828771,-0.4493216,-0.3771555,-0.9411017
0.6025000,0.6025000,0.6025000,-0.4391654,-0.0012245,-1.9564289,-0.4391654,-0.3681429,-0.9255890
0.6050000,0.6050000,0.6050000,-0.4291567,-0.0012268,-1.9304461,-0.4291567,-0.3593145,-0.9098709
0.6075000,0.6075000,0.6075000,-0.4193060,-0.0012286,-1.9049195,-0.4193060,-0.3506734,-0.8939880
0.6100000,0.6100000,0.6100000,-0.4096219,-0.0012298,-1.8798396,-0.4096219,-0.3422215,-0.8779808
0.6125000,0.6125000,0.6125000,-0.4001115,-0.0012304,-1.8551975,-0.4001115,-0.3339598,-0.8618897
0.6150000,0.6150000,0.6150000,-0.3907802,-0.0012305,-1.8309841,-0.3907802,-0.3258885,-0.8457533
0.6175000,0.6175000,0.6175000,-0.3816323,-0.0012300,-1.8071908,-0.3816323,-0.3180071,-0.8296087
0.6200000,0.6200000,0.6200000,-0.3726710,-0.0012290,-1.7838088,-0.3726710,-0.3103146,-0.8134907
0.6225000,0.6225000,0.6225000,-0.3638983,-0.0012275,-1.7608298,-0.3638983,-0.3028092,-0.7974316
0.6250000,0.6250000,0.6250000,-0.3553155,-0.0012256,-1.7382454,-0.3553155,-0.2954890,-0.7814611
0.6275000,0.6275000,0.6275000,-0.3469229,-0.0012233,-1.7160475,-0.3469229,-0.2883516,-0.7656061
0.6300000,0.6300000,0.6300000,-0.3387203,-0.0012205,-1.6942281,-0.3387203,-0.2813941,-0.7498910
0.6325000,0.6325000,0.6325000,-0.3307069,-0.0012174,-1.6727796,-0.3307069,-0.2746137,-0.7343373
0.6350000,0.6350000,0.6350000,-0.3228813,-0.0012139,-1.6516941,-0.3228813,-0.2680071,-0.7189641
0.6375000,0.6375000,0.6375000,-0.3152417,-0.0012101,-1.6309643,-0.3152417,-0.2615710,-0.7037882
0.6400000,0.6400000,0.6400000,-0.3077859,-0.0012060,-1.6105829,-0.3077859,-0.2553019,-0.6888238
0.6425000,0.6425000,0.6425000,-0.3005115,-0.0012016,-1.5905427,-0.3005115,-0.2491963,-0.6740833
0.6450000,0.6450000,0.6450000,-0.2934158,-0.0011970,-1.5708367,-0.2934158,-0.2432505,-0.6595770
0.6475000,0.6475000,0.6475000,-0.2864957,-0.0011921,-1.5514580,-0.2864957,-0.2374609,-0.6453133
0.6500000,0.6500000,0.6500000,-0.2797482,-0.0011870,-1.5324001,-0.2797482,-0.2318238,-0.6312993
0.6525000,0.6525000,0.6525000,-0.2731700,-0.0011817,-1.5136563,-0.2731700,-0.2263354,-0.6175402
0.6550000,0.6550000,0.6550000,-0.2667578,-0.0011762,-1.4952203,-0.2667578,-0.2209921,-0.6040401
0.6575000,0.6575000,0.6575000,-0.2605081,-0.0011705,-1.4770859,-0.2605081,-0.2157902,-0.5908020
0.6600000,0.6600000,0.6600000,-0.2544173,-0.0011646,-1.4592469,-0.2544173,-0.2107260,-0.5778275
0.6625000,0.6625000,0.6625000,-0.2484820,-0.0011587,-1.4416973,-0.2484820,-0.2057959,-0.5651176
0.6650000,0.6650000,0.6650000,-0.2426986,-0.0011526,-1.4244315,-0.2426986,-0.2009965,-0.5526723
0.6675000,0.6675000,0.6675000,-0.2370635,-0.0011463,-1.4074435,-0.2370635,-0.1963241,-0.5404907
0.6700000,0.6700000,0.6700000,-0.2315731,-0.0011400,-1.3907280,-0.2315731,-0.1917753,-0.5285716
0.6725000,0.6725000,0.6725000,-0.2262239,-0.0011336,-1.3742795,-0.2262239,-0.1873469,-0.5169130
0.6750000,0.6750000,0.6750000,-0.2210124,-0.0011271,-1.3580926,-0.2210124,-0.1830353,-0.5055124
0.6775000,0.6775000,0.6775000,-0.2159351,-0.0011205,-1.3421622,-0.2159351,-0.1788376,-0.4943671
0.6800000,0.6800000,0.6800000,-0.2109886,-0.0011138,-1.3264831,-0.2109886,-0.1747503,-0.4834737
0.6825000,0.6825000,0.6825000,-0.2061695,-0.0011071,-1.3110506,-0.2061695,-0.1707706,-0.4728288
0.6850000,0.6850000,0.6850000,-0.2014745,-0.0011003,-1.2958596,-0.2014745,-0.1668953,-0.4624286
0.6875000,0.6875000,0.6875000,-0.1969002,-0.0010935,-1.2809055,-0.1969002,-0.1631215,-0.4522691
0.6900000,0.6900000,0.6900000,-0.1924436,-0.0010866,-1.2661837,-0.1924436,-0.1594463,-0.4423461
0.6925000,0.6925000,0.6925000,-0.1881014,-0.0010797,-1.2516897,-0.1881014,-0.1558670,-0.4326554
0.6950000,0.6950000,0.6950000,-0.1838706,-0.0010727,-1.2374190,-0.1838706,-0.1523808,-0.4231925
0.6975000,0.6975000,0.6975000,-0.1797482,-0.0010658,-1.2233673,-0.1797482,-0.1489851,-0.4139530
0.7000000,0.7000000,0.7000000,-0.1757312,-0.0010588,-1.2095304,-0.1757312,-0.1456773,-0.4049322
0.7025000,0.7025000,0.7025000,-0.1718167,-0.0010518,-1.1959042,-0.1718167,-0.1424549,-0.3961258
0.7050000,0.7050000,0.7050000,-0.1680020,-0.0010448,-1.1824847,-0.1680020,-0.1393155,-0.3875289
0.7075000,0.7075000,0.7075000,-0.1642844,-0.0010377,-1.1692679,-0.1642844,-0.1362568,-0.3791371
0.7100000,0.7100000,0.7100000,-0.1606611,-0.0010307,-1.1562501,-0.1606611,-0.1332763,-0.3709457
0.7125000,0.7125000,0.7125000,-0.1571296,-0.0010237,-1.1434273,-0.1571296,-0.1303720,-0.3629503
0.7150000,0.7150000,0.7150000,-0.1536873,-0.0010167,-1.1307961,-0.1536873,-0.1275415,-0.3551462
0.7175000,0.7175000,0.7175000,-0.1503318,-0.0010096,-1.1183527,-0.1503318,-0.1247830,-0.3475290
0.7200000,0.7200000,0.7200000,-0.1470607,-0.0010026,-1.1060936,-0.1470607,-0.1220942,-0.3400943
0.7225000,0.7225000,0.7225000,-0.1438717,-0.0009956,-1.0940155,-0.1438717,-0.1194732,-0.3328377
0.7250000,0.7250000,0.7250000,-0.1407625,-0.0009887,-1.0821150,-0.1407625,-0.1169181,-0.3257548
0.7275000,0.7275000,0.7275000,-0.1377309,-0.0009817,-1.0703888,-0.1377309,-0.1144271,-0.3188415
0.7300000,0.7300000,0.7300000,-0.1347747,-0.0009747,-1.0588336,-0.1347747,-0.1119983,-0.3120937
0.7325000,0.7325000,0.7325000,-0.1318920,-0.0009678,-1.0474464,-0.1318920,-0.1096300,-0.3055071
0.7350000,0.7350000,0.7350000,-0.1290806,-0.0009609,-1.0362240,-0.1290806,-0.1073205,-0.2990778
0.7375000,0.7375000,0.7375000,-0.1263386,-0.0009540,-1.0251635,-0.1263386,-0.1050681,-0.2928019
0.7400000,0.7400000,0.7400000,-0.1236641,-0.0009472,-1.0142620,-0.1236641,-0.1028713,-0.2866755
0.7425000,0.7425000,0.7425000,-0.1210552,-0.0009403,-1.0035165,-0.1210552,-0.1007284,-0.2806948
0.7450000,0.7450000,0.7450000,-0.1185102,-0.0009335,-0.9929242,-0.1185102,-0.0986380,-0.2748562
0.7475000,0.7475000,0.7475000,-0.1160273,-0.0009268,-0.9824824,-0.1160273,-0.0965987,-0.2691561
0.7500000,0.7500000,0.7500000,-0.1136048,-0.0009200,-0.9721884,-0.1136048,-0.0946090,-0.2635909
0.7525000,0.7525000,0.7525000,-0.1112410,-0.0009133,-0.9620396,-0.1112410,-0.0926675,-0.2581572
0.7550000,0.7550000,0.7550000,-0.1089344,-0.0009067,-0.9520334,-0.1089344,-0.0907730,-0.2528517
0.7575000,0.7575000,0.7575000,-0.1066834,-0.0009000,-0.9421673,-0.1066834,-0.0889240,-0.2476710
0.7600000,0.7600000,0.7600000,-0.1044865,-0.0008934,-0.9324387,-0.1044865,-0.0871195,-0.2426120
0.7625000,0.7625000,0.7625000,-0.1023422,-0.0008869,-0.9228453,-0.1023422,-0.0853581,-0.2376716
0.7650000,0.7650000,0.7650000,-0.1002492,-0.0008803,-0.9133848,-0.1002492,-0.0836387,-0.2328467
0.7675000,0.7675000,0.7675000,-0.0982060,-0.0008738,-0.9040547,-0.0982060,-0.0819602,-0.2281344
0.7700000,0.7700000,0.7700000,-0.0962112,-0.0008674,-0.8948529,-0.0962112,-0.0803213,-0.2235317
0.7725000,0.7725000,0.7725000,-0.0942637,-0.0008610,-0.8857770,-0.0942637,-0.0787212,-0.2190360
0.7750000,0.7750000,0.7750000,-0.0923621,-0.0008546,-0.8768250,-0.0923621,-0.0771587,-0.2146444
0.7775000,0.7775000,0.7775000,-0.0905052,-0.0008483,-0.8679948,-0.0905052,-0.0756327,-0.2103542
0.7800000,0.7800000,0.7800000,-0.0886918,-0.0008420,-0.8592841,-0.0886918,-0.0741425,-0.2061630
0.7825000,0.7825000,0.7825000,-0.0869207,-0.0008357,-0.8506910,-0.0869207,-0.0726869,-0.2020681
0.7850000,0.7850000,0.7850000,-0.0851910,-0.0008295,-0.8422136,-0.0851910,-0.0712650,-0.1980671
0.7875000,0.7875000,0.7875000,-0.0835013,-0.0008233,-0.8338497,-0.0835013,-0.0698760,-0.1941576
0.7900000,0.7900000,0.7900000,-0.0818508,-0.0008172,-0.8255976,-0.0818508,-0.0685190,-0.1903372
0.7925000,0.7925000,0.7925000,-0.0802383,-0.0008111,-0.8174552,-0.0802383,-0.0671932,-0.1866038
0.7950000,0.7950000,0.7950000,-0.0786629,-0.0008051,-0.8094209,-0.0786629,-0.0658976,-0.1829551
0.7975000,0.7975000,0.7975000,-0.0771236,-0.0007990,-0.8014928,-0.0771236,-0.0646316,-0.1793889
0.8000000,0.8000000,0.8000000,-0.0756195,-0.0007931,-0.7936690,-0.0756195,-0.0633944,-0.1759032
0.8025000,0.8025000,0.8025000,-0.0741496,-0.0007872,-0.7859480,-0.0741496,-0.0621852,-0.1724959
0.8050000,0.8050000,0.8050000,-0.0727131,-0.0007813,-0.7783279,-0.0727131,-0.0610033,-0.1691651
0.8075000,0.8075000,0.8075000,-0.0713090,-0.0007755,-0.7708072,-0.0713090,-0.0598479,-0.1659088
0.8100000,0.8100000,0.8100000,-0.0699367,-0.0007697,-0.7633841,-0.0699367,-0.0587184,-0.1627251
0.8125000,0.8125000,0.8125000,-0.0685951,-0.0007639,-0.7560572,-0.0685951,-0.0576142,-0.1596123
0.8150000,0.8150000,0.8150000,-0.0672837,-0.0007582,-0.7488247,-0.0672837,-0.0565345,-0.1565685
0.8175000,0.8175000,0.8175000,-0.0660015,-0.0007526,-0.7416853,-0.0660015,-0.0554788,-0.1535921
0.8200000,0.8200000,0.8200000,-0.0647479,-0.0007469,-0.7346373,-0.0647479,-0.0544465,-0.1506813
0.8225000,0.8225000,0.8225000,-0.0635221,-0.0007414,-0.7276794,-0.0635221,-0.0534368,-0.1478346
0.8250000,0.8250000,0.8250000,-0.0623235,-0.0007358,-0.7208100,-0.0623235,-0.0524494,-0.1450502
0.8275000,0.8275000,0.8275000,-0.0611512,-0.0007304,-0.7140277,-0.0611512,-0.0514836,-0.1423268
0.8300000,0.8300000,0.8300000,-0.0600048,-0.0007249,-0.7073313,-0.0600048,-0.0505388,-0.1396627
0.8325000,0.8325000,0.8325000,-0.0588834,-0.0007195,-0.7007191,-0.0588834,-0.0496146,-0.1370566
0.8350000,0.8350000,0.8350000,-0.0577866,-0.0007142,-0.6941901,-0.0577866,-0.0487103,-0.1345070
0.8375000,0.8375000,0.8375000,-0.0567136,-0.0007088,-0.6877427,-0.0567136,-0.0478257,-0.1320124
0.8400000,0.8400000,0.8400000,-0.0556639,-0.0007036,-0.6813758,-0.0556639,-0.0469600,-0.1295717
0.8425000,0.8425000,0.8425000,-0.0546370,-0.0006983,-0.6750881,-0.0546370,-0.0461130,-0.1271833
0.8450000,0.8450000,0.8450000,-0.0536322,-0.0006931,-0.6688783,-0.0536322,-0.0452840,-0.1248462
0.8475000,0.8475000,0.8475000,-0.0526490,-0.0006880,-0.6627453,-0.0526490,-0.0444727,-0.1225590
0.8500000,0.8500000,0.8500000,-0.0516869,-0.0006829,-0.6566878,-0.0516869,-0.0436787,-0.1203205
0.8525000,0.8525000,0.8525000,-0.0507453,-0.0006778,-0.6507046,-0.0507453,-0.0429014,-0.1181296
0.8550000,0.8550000,0.8550000,-0.0498238,-0.0006728,-0.6447946,-0.0498238,-0.0421406,-0.1159850
0.8575000,0.8575000,0.8575000,-0.0489219,-0.0006678,-0.6389568,-0.0489219,-0.0413958,-0.1138857
0.8600000,0.8600000,0.8600000,-0.0480390,-0.0006629,-0.6331899,-0.0480390,-0.0406666,-0.1118307
0.8625000,0.8625000,0.8625000,-0.0471748,-0.0006580,-0.6274929,-0.0471748,-0.0399526,-0.1098188
0.8650000,0.8650000,0.8650000,-0.0463288,-0.0006531,-0.6218647,-0.0463288,-0.0392535,-0.1078490
0.8675000,0.8675000,0.8675000,-0.0455005,-0.0006483,-0.6163043,-0.0455005,-0.0385689,-0.1059203
0.8700000,0.8700000,0.8700000,-0.0446895,-0.0006435,-0.6108106,-0.0446895,-0.0378985,-0.1040317
0.8725000,0.8725000,0.8725000,-0.0438955,-0.0006388,-0.6053827,-0.0438955,-0.0372419,-0.1021823
0.8750000,0.8750000,0.8750000,-0.0431179,-0.0006341,-0.6000195,-0.0431179,-0.0365988,-0.1003712
0.8775000,0.8775000,0.8775000,-0.0423565,-0.0006294,-0.5947201,-0.0423565,-0.0359689,-0.0985975
0.8800000,0.8800000,0.8800000,-0.0416108,-0.0006248,-0.5894836,-0.0416108,-0.0353518,-0.0968602
0.8825000,0.8825000,0.8825000,-0.0408804,-0.0006202,-0.5843089,-0.0408804,-0.0347474,-0.0951586
0.8850000,0.8850000,0.8850000,-0.0401651,-0.0006157,-0.5791952,-0.0401651,-0.0341552,-0.0934918
0.8875000,0.8875000,0.8875000,-0.0394644,-0.0006112,-0.5741416,-0.0394644,-0.0335750,-0.0918589
0.8900000,0.8900000,0.8900000,-0.0387779,-0.0006067,-0.5691471,-0.0387779,-0.0330065,-0.0902593
0.8925000,0.8925000,0.8925000,-0.0381055,-0.0006023,-0.5642109,-0.0381055,-0.0324494,-0.0886921
0.8950000,0.8950000,0.8950000,-0.0374467,-0.0005979,-0.5593322,-0.0374467,-0.0319035,-0.0871566
0.8975000,0.8975000,0.8975000,-0.0368012,-0.0005935,-0.5545101,-0.0368012,-0.0313685,-0.0856520
0.9000000,0.9000000,0.9000000,-0.0361687,-0.0005892,-0.5497438,-0.0361687,-0.0308442,-0.0841777
0.9025000,0.9025000,0.9025000,-0.0355490,-0.0005849,-0.5450324,-0.0355490,-0.0303302,-0.0827329
0.9050000,0.9050000,0.9050000,-0.0349416,-0.0005807,-0.5403752,-0.0349416,-0.0298265,-0.0813170
0.9075000,0.9075000,0.9075000,-0.0343464,-0.0005765,-0.5357714,-0.0343464,-0.0293327,-0.0799293
0.9100000,0.9100000,0.9100000,-0.0337631,-0.0005723,-0.5312202,-0.0337631,-0.0288486,-0.0785692
0.9125000,0.9125000,0.9125000,-0.0331914,-0.0005682,-0.5267209,-0.0331914,-0.0283740,-0.0772360
0.9150000,0.9150000,0.9150000,-0.0326309,-0.0005641,-0.5222727,-0.0326309,-0.0279087,-0.0759292
0.9175000,0.9175000,0.9175000,-0.0320816,-0.0005600,-0.5178748,-0.0320816,-0.0274525,-0.0746482
0.9200000,0.9200000,0.9200000,-0.0315431,-0.0005560,-0.5135267,-0.0315431,-0.0270051,-0.0733923
0.9225000,0.9225000,0.9225000,-0.0310151,-0.0005520,-0.5092275,-0.0310151,-0.0265664,-0.0721610
0.9250000,0.9250000,0.9250000,-0.0304975,-0.0005480,-0.5049766,-0.0304975,-0.0261362,-0.0709538
0.9275000,0.9275000,0.9275000,-0.0299900,-0.0005441,-0.5007733,-0.0299900,-0.0257143,-0.0697701
0.9300000,0.9300000,0.9300000,-0.0294923,-0.0005402,-0.4966169,-0.0294923,-0.0253005,-0.0686093
0.9325000,0.9325000,0.9325000,-0.0290044,-0.0005363,-0.4925067,-0.0290044,-0.0248945,-0.0674711
0.9350000,0.9350000,0.9350000,-0.0285258,-0.0005325,-0.4884422,-0.0285258,-0.0244964,-0.0663549
0.9375000,0.9375000,0.9375000,-0.0280566,-0.0005287,-0.4844226,-0.0280566,-0.0241058,-0.0652602
0.9400000,0.9400000,0.9400000,-0.0275963,-0.0005250,-0.4804474,-0.0275963,-0.0237226,-0.0641865
0.9425000,0.9425000,0.9425000,-0.0271449,-0.0005212,-0.4765160,-0.0271449,-0.0233467,-0.0631334
0.9450000,0.9450000,0.9450000,-0.0267021,-0.0005175,-0.4726276,-0.0267021,-0.0229779,-0.0621004
0.9475000,0.9475000,0.9475000,-0.0262677,-0.0005139,-0.4687819,-0.0262677,-0.0226160,-0.0610871
0.9500000,0.9500000,0.9500000,-0.0258416,-0.0005102,-0.4649780,-0.0258416,-0.0222609,-0.0600930
0.9525000,0.9525000,0.9525000,-0.0254237,-0.0005066,-0.4612155,-0.0254237,-0.0219124,-0.0591178
0.9550000,0.9550000,0.9550000,-0.0250136,-0.0005031,-0.4574939,-0.0250136,-0.0215704,-0.0581610
0.9575000,0.9575000,0.9575000,-0.0246112,-0.0004995,-0.4538125,-0.0246112,-0.0212348,-0.0572222
0.9600000,0.9600000,0.9600000,-0.0242164,-0.0004960,-0.4501708,-0.0242164,-0.0209054,-0.0563011
0.9625000,0.9625000,0.9625000,-0.0238291,-0.0004925,-0.4465683,-0.0238291,-0.0205821,-0.0553973
0.9650000,0.9650000,0.9650000,-0.0234490,-0.0004891,-0.4430044,-0.0234490,-0.0202647,-0.0545103
0.9675000,0.9675000,0.9675000,-0.0230759,-0.0004857,-0.4394786,-0.0230759,-0.0199532,-0.0536399
0.9700000,0.9700000,0.9700000,-0.0227098,-0.0004823,-0.4359905,-0.0227098,-0.0196474,-0.0527857
0.9725000,0.9725000,0.9725000,-0.0223505,-0.0004789,-0.4325394,-0.0223505,-0.0193471,-0.0519473
0.9750000,0.9750000,0.9750000,-0.0219979,-0.0004756,-0.4291250,-0.0219979,-0.0190524,-0.0511244
0.9775000,0.9775000,0.9775000,-0.0216517,-0.0004723,-0.4257466,-0.0216517,-0.0187630,-0.0503167
0.9800000,0.9800000,0.9800000,-0.0213120,-0.0004690,-0.4224039,-0.0213120,-0.0184788,-0.0495239
0.9825000,0.9825000,0.9825000,-0.0209784,-0.0004658,-0.4190964,-0.0209784,-0.0181997,-0.0487455
0.9850000,0.9850000,0.9850000,-0.0206510,-0.0004625,-0.4158236,-0.0206510,-0.0179257,-0.0479815
0.9875000,0.9875000,0.9875000,-0.0203296,-0.0004593,-0.4125850,-0.0203296,-0.0176566,-0.0472314
0.9900000,0.9900000,0.9900000,-0.0200140,-0.0004562,-0.4093802,-0.0200140,-0.0173923,-0.0464949
0.9925000,0.9925000,0.9925000,-0.0197041,-0.0004530,-0.4062088,-0.0197041,-0.0171328,-0.0457718
0.9950000,0.9950000,0.9950000,-0.0193998,-0.0004499,-0.4030703,-0.0193998,-0.0168778,-0.0450618
0.9975000,0.9975000,0.9975000,-0.0191011,-0.0004469,-0.3999642,-0.0191011,-0.0166274,-0.0443646
1.0000000,1.0000000,1.0000000,-0.0188077,-0.0004438,-0.3968902,-0.0188077,-0.0163814,-0.0436800
1.0025000,1.0025000,1.0025000,-0.0185196,-0.0004408,-0.3938479,-0.0185196,-0.0161397,-0.0430076
1.0050000,1.0050000,1.0050000,-0.0182366,-0.0004378,-0.3908368,-0.0182366,-0.0159023,-0.0423474
1.0075000,1.0075000,1.0075000,-0.0179587,-0.0004348,-0.3878566,-0.0179587,-0.0156691,-0.0416989
1.0100000,1.0100000,1.0100000,-0.0176858,-0.0004318,-0.3849068,-0.0176858,-0.0154400,-0.0410619
1.0125000,1.0125000,1.0125000,-0.0174177,-0.0004289,-0.3819870,-0.0174177,-0.0152148,-0.0404363
1.0150000,1.0150000,1.0150000,-0.0171543,-0.0004260,-0.3790969,-0.0171543,-0.0149936,-0.0398218
1.0175000,1.0175000,1.0175000,-0.0168957,-0.0004231,-0.3762361,-0.0168957,-0.0147762,-0.0392182
1.0200000,1.0200000,1.0200000,-0.0166415,-0.0004202,-0.3734042,-0.0166415,-0.0145626,-0.0386252
1.0225000,1.0225000,1.0225000,-0.0163919,-0.0004174,-0.3706009,-0.0163919,-0.0143527,-0.0380426
1.0250000,1.0250000,1.0250000,-0.0161466,-0.0004146,-0.3678257,-0.0161466,-0.0141463,-0.0374703
1.0275000,1.0275000,1.0275000,-0.0159056,-0.0004118,-0.3650784,-0.0159056,-0.0139436,-0.0369080
1.0300000,1.0300000,1.0300000,-0.0156688,-0.0004091,-0.3623585,-0.0156688,-0.0137443,-0.0363555
1.0325000,1.0325000,1.0325000,-0.0154362,-0.0004063,-0.3596658,-0.0154362,-0.0135484,-0.0358126
1.0350000,1.0350000,1.0350000,-0.0152076,-0.0004036,-0.3569998,-0.0152076,-0.0133558,-0.0352791
1.0375000,1.0375000,1.0375000,-0.0149829,-0.0004009,-0.3543604,-0.0149829,-0.0131665,-0.0347550
1.0400000,1.0400000,1.0400000,-0.0147621,-0.0003983,-0.3517470,-0.0147621,-0.0129804,-0.0342398
1.0425000,1.0425000,1.0425000,-0.0145451,-0.0003956,-0.3491595,-0.0145451,-0.0127975,-0.0337336
1.0450000,1.0450000,1.0450000,-0.0143319,-0.0003930,-0.3465974,-0.0143319,-0.0126176,-0.0332360
1.0475000,1.0475000,1.0475000,-0.0141223,-0.0003904,-0.3440605,-0.0141223,-0.0124408,-0.0327470
1.0500000,1.0500000,1.0500000,-0.0139163,-0.0003878,-0.3415485,-0.0139163,-0.0122669,-0.0322664
1.0525000,1.0525000,1.0525000,-0.0137138,-0.0003852,-0.3390611,-0.0137138,-0.0120959,-0.0317939
1.0550000,1.0550000,1.0550000,-0.0135147,-0.0003827,-0.3365978,-0.0135147,-0.0119278,-0.0313295
1.0575000,1.0575000,1.0575000,-0.0133191,-0.0003802,-0.3341586,-0.0133191,-0.0117625,-0.0308730
1.0600000,1.0600000,1.0600000,-0.0131267,-0.0003777,-0.3317430,-0.0131267,-0.0115999,-0.0304243
1.0625000,1.0625000,1.0625000,-0.0129376,-0.0003752,-0.3293507,-0.0129376,-0.0114400,-0.0299831
1.0650000,1.0650000,1.0650000,-0.0127517,-0.0003728,-0.3269816,-0.0127517,-0.0112828,-0.0295493
1.0675000,1.0675000,1.0675000,-0.0125689,-0.0003703,-0.3246353,-0.0125689,-0.0111281,-0.0291229
1.0700000,1.0700000,1.0700000,-0.0123891,-0.0003679,-0.3223115,-0.0123891,-0.0109760,-0.0287036
1.0725000,1.0725000,1.0725000,-0.0122124,-0.0003655,-0.3200100,-0.0122124,-0.0108263,-0.0282913
1.0750000,1.0750000,1.0750000,-0.0120386,-0.0003632,-0.3177304,-0.0120386,-0.0106791,-0.0278860
1.0775000,1.0775000,1.0775000,-0.0118677,-0.0003608,-0.3154726,-0.0118677,-0.0105343,-0.0274873
1.0800000,1.0800000,1.0800000,-0.0116996,-0.0003585,-0.3132363,-0.0116996,-0.0103919,-0.0270953
1.0825000,1.0825000,1.0825000,-0.0115344,-0.0003562,-0.3110212,-0.0115344,-0.0102517,-0.0267098
1.0850000,1.0850000,1.0850000,-0.0113718,-0.0003539,-0.3088271,-0.0113718,-0.0101138,-0.0263307
1.0875000,1.0875000,1.0875000,-0.0112119,-0.0003516,-0.3066536,-0.0112119,-0.0099782,-0.0259578
1.0900000,1.0900000,1.0900000,-0.0110547,-0.0003493,-0.3045007,-0.0110547,-0.0098447,-0.0255911
1.0925000,1.0925000,1.0925000,-0.0109000,-0.0003471,-0.3023679,-0.0109000,-0.0097133,-0.0252304
1.0950000,1.0950000,1.0950000,-0.0107479,-0.0003449,-0.3002552,-0.0107479,-0.0095841,-0.0248755
1.0975000,1.0975000,1.0975000,-0.0105982,-0.0003427,-0.2981622,-0.0105982,-0.0094569,-0.0245265
1.1000000,1.1000000,1.1000000,-0.0104510,-0.0003405,-0.2960887,-0.0104510,-0.0093318,-0.0241832
1.1025000,1.1025000,1.1025000,-0.0103062,-0.0003383,-0.2940346,-0.0103062,-0.0092086,-0.0238455
1.1050000,1.1050000,1.1050000,-0.0101637,-0.0003362,-0.2919995,-0.0101637,-0.0090874,-0.0235132
1.1075000,1.1075000,1.1075000,-0.0100235,-0.0003340,-0.2899832,-0.0100235,-0.0089681,-0.0231864
1.1100000,1.1100000,1.1100000,-0.0098856,-0.0003319,-0.2879856,-0.0098856,-0.0088506,-0.0228648
1.1125000,1.1125000,1.1125000,-0.0097499,-0.0003298,-0.2860064,-0.0097499,-0.0087350,-0.0225484
1.1150000,1.1150000,1.1150000,-0.0096164,-0.0003277,-0.2840453,-0.0096164,-0.0086213,-0.0222370
1.1175000,1.1175000,1.1175000,-0.0094850,-0.0003257,-0.2821023,-0.0094850,-0.0085093,-0.0219307
1.1200000,1.1200000,1.1200000,-0.0093557,-0.0003236,-0.2801771,-0.0093557,-0.0083990,-0.0216293
1.1225000,1.1225000,1.1225000,-0.0092284,-0.0003216,-0.2782694,-0.0092284,-0.0082905,-0.0213327
1.1250000,1.1250000,1.1250000,-0.0091032,-0.0003196,-0.2763791,-0.0091032,-0.0081836,-0.0210408
1.1275000,1.1275000,1.1275000,-0.0089800,-0.0003176,-0.2745060,-0.0089800,-0.0080784,-0.0207535
1.1300000,1.1300000,1.1300000,-0.0088587,-0.0003156,-0.2726498,-0.0088587,-0.0079749,-0.0204708
1.1325000,1.1325000,1.1325000,-0.0087394,-0.0003136,-0.2708105,-0.0087394,-0.0078729,-0.0201926
1.1350000,1.1350000,1.1350000,-0.0086219,-0.0003117,-0.2689877,-0.0086219,-0.0077725,-0.0199188
1.1375000,1.1375000,1.1375000,-0.0085062,-0.0003097,-0.2671814,-0.0085062,-0.0076736,-0.0196492
1.1400000,1.1400000,1.1400000,-0.0083924,-0.0003078,-0.2653913,-0.0083924,-0.0075762,-0.0193839
1.1425000,1.1425000,1.1425000,-0.0082804,-0.0003059,-0.2636172,-0.0082804,-0.0074803,-0.0191228
1.1450000,1.1450000,1.1450000,-0.0081701,-0.0003040,-0.2618590,-0.0081701,-0.0073859,-0.0188658
1.1475000,1.1475000,1.1475000,-0.0080615,-0.0003022,-0.2601165,-0.0080615,-0.0072929,-0.0186127
1.1500000,1.1500000,1.1500000,-0.0079546,-0.0003003,-0.2583895,-0.0079546,-0.0072013,-0.0183636
1.1525000,1.1525000,1.1525000,-0.0078494,-0.0002985,-0.2566778,-0.0078494,-0.0071111,-0.0181184
1.1550000,1.1550000,1.1550000,-0.0077457,-0.0002966,-0.2549813,-0.0077457,-0.0070223,-0.0178770
1.1575000,1.1575000,1.1575000,-0.0076437,-0.0002948,-0.2532998,-0.0076437,-0.0069348,-0.0176393
1.1600000,1.1600000,1.1600000,-0.0075433,-0.0002930,-0.2516331,-0.0075433,-0.0068486,-0.0174053
1.1625000,1.1625000,1.1625000,-0.0074444,-0.0002912,-0.2499810,-0.0074444,-0.0067637,-0.0171749
1.1650000,1.1650000,1.1650000,-0.0073470,-0.0002895,-0.2483435,-0.0073470,-0.0066800,-0.0169480
1.1675000,1.1675000,1.1675000,-0.0072511,-0.0002877,-0.2467204,-0.0072511,-0.0065976,-0.0167246
1.1700000,1.1700000,1.1700000,-0.0071567,-0.0002860,-0.2451114,-0.0071567,-0.0065165,-0.0165046
1.1725000,1.1725000,1.1725000,-0.0070637,-0.0002842,-0.2435164,-0.0070637,-0.0064365,-0.0162880
1.1750000,1.1750000,1.1750000,-0.0069721,-0.0002825,-0.2419353,-0.0069721,-0.0063577,-0.0160746
1.1775000,1.1775000,1.1775000,-0.0068819,-0.0002808,-0.2403680,-0.0068819,-0.0062801,-0.0158646
1.1800000,1.1800000,1.1800000,-0.0067930,-0.0002791,-0.2388142,-0.0067930,-0.0062036,-0.0156577
1.1825000,1.1825000,1.1825000,-0.0067055,-0.0002774,-0.2372739,-0.0067055,-0.0061282,-0.0154539
1.1850000,1.1850000,1.1850000,-0.0066194,-0.0002758,-0.2357468,-0.0066194,-0.0060540,-0.0152532
1.1875000,1.1875000,1.1875000,-0.0065345,-0.0002741,-0.2342329,-0.0065345,-0.0059808,-0.0150555
1.1900000,1.1900000,1.1900000,-0.0064509,-0.0002725,-0.2327320,-0.0064509,-0.0059087,-0.0148608
1.1925000,1.1925000,1.1925000,-0.0063685,-0.0002709,-0.2312440,-0.0063685,-0.0058376,-0.0146690
1.1950000,1.1950000,1.1950000,-0.0062874,-0.0002692,-0.2297686,-0.0062874,-0.0057676,-0.0144801
1.1975000,1.1975000,1.1975000,-0.0062074,-0.0002676,-0.2283059,-0.0062074,-0.0056985,-0.0142940
1.2000000,1.2000000,1.2000000,-0.0061287,-0.0002661,-0.2268556,-0.0061287,-0.0056305,-0.0141107
1.2025000,1.2025000,1.2025000,-0.0060511,-0.0002645,-0.2254176,-0.0060511,-0.0055635,-0.0139301
1.2050000,1.2050000,1.2050000,-0.0059747,-0.0002629,-0.2239918,-0.0059747,-0.0054974,-0.0137522
1.2075000,1.2075000,1.2075000,-0.0058994,-0.0002614,-0.2225780,-0.0058994,-0.0054322,-0.0135769
1.2100000,1.2100000,1.2100000,-0.0058252,-0.0002598,-0.2211762,-0.0058252,-0.0053680,-0.0134042
1.2125000,1.2125000,1.2125000,-0.0057521,-0.0002583,-0.2197862,-0.0057521,-0.0053047,-0.0132341
1.2150000,1.2150000,1.2150000,-0.0056801,-0.0002568,-0.2184079,-0.0056801,-0.0052423,-0.0130665
1.2175000,1.2175000,1.2175000,-0.0056091,-0.0002553,-0.2170411,-0.0056091,-0.0051808,-0.0129013
1.2200000,1.2200000,1.2200000,-0.0055392,-0.0002538,-0.2156858,-0.0055392,-0.0051202,-0.0127385
1.2225000,1.2225000,1.2225000,-0.0054702,-0.0002523,-0.2143418,-0.0054702,-0.0050604,-0.0125782
1.2250000,1.2250000,1.2250000,-0.0054023,-0.0002508,-0.2130089,-0.0054023,-0.0050015,-0.0124201
1.2275000,1.2275000,1.2275000,-0.0053354,-0.0002494,-0.2116872,-0.0053354,-0.0049434,-0.0122644
1.2300000,1.2300000,1.2300000,-0.0052694,-0.0002479,-0.2103764,-0.0052694,-0.0048861,-0.0121109
1.2325000,1.2325000,1.2325000,-0.0052044,-0.0002465,-0.2090764,-0.0052044,-0.0048296,-0.0119597
1.2350000,1.2350000,1.2350000,-0.0051403,-0.0002451,-0.2077872,-0.0051403,-0.0047739,-0.0118106
1.2375000,1.2375000,1.2375000,-0.0050772,-0.0002436,-0.2065087,-0.0050772,-0.0047190,-0.0116637
1.2400000,1.2400000,1.2400000,-0.0050149,-0.0002422,-0.2052406,-0.0050149,-0.0046648,-0.0115189
1.2425000,1.2425000,1.2425000,-0.0049536,-0.0002408,-0.2039830,-0.0049536,-0.0046114,-0.0113762
1.2450000,1.2450000,1.2450000,-0.0048931,-0.0002395,-0.2027356,-0.0048931,-0.0045587,-0.0112355
1.2475000,1.2475000,1.2475000,-0.0048335,-0.0002381,-0.2014984,-0.0048335,-0.0045068,-0.0110969
1.2500000,1.2500000,1.2500000,-0.0047747,-0.0002367,-0.2002714,-0.0047747,-0.0044555,-0.0109602
1.2525000,1.2525000,1.2525000,-0.0047168,-0.0002354,-0.1990543,-0.0047168,-0.0044050,-0.0108255
1.2550000,1.2550000,1.2550000,-0.0046596,-0.0002340,-0.1978471,-0.0046596,-0.0043552,-0.0106927
1.2575000,1.2575000,1.2575000,-0.0046033,-0.0002327,-0.1966497,-0.0046033,-0.0043060,-0.0105618
1.2600000,1.2600000,1.2600000,-0.0045478,-0.0002314,-0.1954620,-0.0045478,-0.0042576,-0.0104327
1.2625000,1.2625000,1.2625000,-0.0044931,-0.0002300,-0.1942838,-0.0044931,-0.0042097,-0.0103055
1.2650000,1.2650000,1.2650000,-0.0044391,-0.0002287,-0.1931152,-0.0044391,-0.0041626,-0.0101800
1.2675000,1.2675000,1.2675000,-0.0043859,-0.0002274,-0.1919559,-0.0043859,-0.0041161,-0.0100564
1.2700000,1.2700000,1.2700000,-0.0043335,-0.0002262,-0.1908060,-0.0043335,-0.0040702,-0.0099344
1.2725000,1.2725000,1.2725000,-0.0042817,-0.0002249,-0.1896652,-0.0042817,-0.0040249,-0.0098142
1.2750000,1.2750000,1.2750000,-0.0042307,-0.0002236,-0.1885336,-0.0042307,-0.0039802,-0.0096957
1.2775000,1.2775000,1.2775000,-0.0041804,-0.0002224,-0.1874110,-0.0041804,-0.0039361,-0.0095788
1.2800000,1.2800000,1.2800000,-0.0041308,-0.0002211,-0.1862973,-0.0041308,-0.0038927,-0.0094635
1.2825000,1.2825000,1.2825000,-0.0040819,-0.0002199,-0.1851925,-0.0040819,-0.0038498,-0.0093499
1.2850000,1.2850000,1.2850000,-0.0040337,-0.0002186,-0.1840964,-0.0040337,-0.0038074,-0.0092378
1.2875000,1.2875000,1.2875000,-0.0039861,-0.0002174,-0.1830090,-0.0039861,-0.0037657,-0.0091273
1.2900000,1.2900000,1.2900000,-0.0039392,-0.0002162,-0.1819301,-0.0039392,-0.0037245,-0.0090183
1.2925000,1.2925000,1.2925000,-0.0038929,-0.0002150,-0.1808598,-0.0038929,-0.0036838,-0.0089109
1.2950000,1.2950000,1.2950000,-0.0038473,-0.0002138,-0.1797979,-0.0038473,-0.0036437,-0.0088049
1.2975000,1.2975000,1.2975000,-0.0038023,-0.0002126,-0.1787443,-0.0038023,-0.0036041,-0.0087003
1.3000000,1.3000000,1.3000000,-0.0037579,-0.0002115,-0.1776990,-0.0037579,-0.0035651,-0.0085972
1.3025000,1.3025000,1.3025000,-0.0037141,-0.0002103,-0.1766618,-0.0037141,-0.0035265,-0.0084955
1.3050000,1.3050000,1.3050000,-0.0036709,-0.0002091,-0.1756327,-0.0036709,-0.0034885,-0.0083952
1.3075000,1.3075000,1.3075000,-0.0036283,-0.0002080,-0.1746117,-0.0036283,-0.0034509,-0.0082963
1.3100000,1.3100000,1.3100000,-0.0035863,-0.0002068,-0.1735985,-0.0035863,-0.0034138,-0.0081987
1.3125000,1.3125000,1.3125000,-0.0035448,-0.0002057,-0.1725932,-0.0035448,-0.0033773,-0.0081024
1.3150000,1.3150000,1.3150000,-0.0035039,-0.0002046,-0.1715957,-0.0035039,-0.0033412,-0.0080075
1.3175000,1.3175000,1.3175000,-0.0034636,-0.0002035,-0.1706059,-0.0034636,-0.0033055,-0.0079138
1.3200000,1.3200000,1.3200000,-0.0034238,-0.0002023,-0.1696238,-0.0034238,-0.0032704,-0.0078214
1.3225000,1.3225000,1.3225000,-0.0033845,-0.0002012,-0.1686491,-0.0033845,-0.0032357,-0.0077303
1.3250000,1.3250000,1.3250000,-0.0033457,-0.0002002,-0.1676820,-0.0033457,-0.0032014,-0.0076404
1.3275000,1.3275000,1.3275000,-0.0033075,-0.0001991,-0.1667223,-0.0033075,-0.0031676,-0.0075516
1.3300000,1.3300000,1.3300000,-0.0032698,-0.0001980,-0.1657699,-0.0032698,-0.0031342,-0.0074641
1.3325000,1.3325000,1.3325000,-0.0032326,-0.0001969,-0.1648248,-0.0032326,-0.0031012,-0.0073778
1.3350000,1.3350000,1.3350000,-0.0031959,-0.0001958,-0.1638868,-0.0031959,-0.0030687,-0.0072926
1.3375000,1.3375000,1.3375000,-0.0031596,-0.0001948,-0.1629560,-0.0031596,-0.0030365,-0.0072085
1.3400000,1.3400000,1.3400000,-0.0031239,-0.0001937,-0.1620323,-0.0031239,-0.0030048,-0.0071256
1.3425000,1.3425000,1.3425000,-0.0030886,-0.0001927,-0.1611156,-0.0030886,-0.0029735,-0.0070437
1.3450000,1.3450000,1.3450000,-0.0030538,-0.0001917,-0.1602058,-0.0030538,-0.0029426,-0.0069630
1.3475000,1.3475000,1.3475000,-0.0030194,-0.0001906,-0.1593028,-0.0030194,-0.0029121,-0.0068833
1.3500000,1.3500000,1.3500000,-0.0029855,-0.0001896,-0.1584067,-0.0029855,-0.0028819,-0.0068047
1.3525000,1.3525000,1.3525000,-0.0029520,-0.0001886,-0.1575172,-0.0029520,-0.0028522,-0.0067271
1.3550000,1.3550000,1.3550000,-0.0029190,-0.0001876,-0.1566345,-0.0029190,-0.0028228,-0.0066505
1.3575000,1.3575000,1.3575000,-0.0028864,-0.0001866,-0.1557584,-0.0028864,-0.0027938,-0.0065749
1.3600000,1.3600000,1.3600000,-0.0028542,-0.0001856,-0.1548888,-0.0028542,-0.0027651,-0.0065003
1.3625000,1.3625000,1.3625000,-0.0028225,-0.0001846,-0.1540257,-0.0028225,-0.0027368,-0.0064267
1.3650000,1.3650000,1.3650000,-0.0027911,-0.0001837,-0.1531690,-0.0027911,-0.0027089,-0.0063541
1.3675000,1.3675000,1.3675000,-0.0027602,-0.0001827,-0.1523187,-0.0027602,-0.0026813,-0.0062824
1.3700000,1.3700000,1.3700000,-0.0027297,-0.0001817,-0.1514747,-0.0027297,-0.0026540,-0.0062116
1.3725000,1.3725000,1.3725000,-0.0026995,-0.0001808,-0.1506369,-0.0026995,-0.0026271,-0.0061418
1.3750000,1.3750000,1.3750000,-0.0026698,-0.0001798,-0.1498053,-0.0026698,-0.0026005,-0.0060729
1.3775000,1.3775000,1.3775000,-0.0026404,-0.0001789,-0.1489799,-0.0026404,-0.0025743,-0.0060048
1.3800000,1.3800000,1.3800000,-0.0026114,-0.0001779,-0.1481605,-0.0026114,-0.0025483,-0.0059377
1.3825000,1.3825000,1.3825000,-0.0025828,-0.0001770,-0.1473472,-0.0025828,-0.0025227,-0.0058714
1.3850000,1.3850000,1.3850000,-0.0025546,-0.0001761,-0.1465398,-0.0025546,-0.0024974,-0.0058059
1.3875000,1.3875000,1.3875000,-0.0025267,-0.0001752,-0.1457383,-0.0025267,-0.0024724,-0.0057413
1.3900000,1.3900000,1.3900000,-0.0024991,-0.0001742,-0.1449427,-0.0024991,-0.0024478,-0.0056776
1.3925000,1.3925000,1.3925000,-0.0024720,-0.0001733,-0.1441529,-0.0024720,-0.0024234,-0.0056146
1.3950000,1.3950000,1.3950000,-0.0024451,-0.0001724,-0.1433688,-0.0024451,-0.0023993,-0.0055525
1.3975000,1.3975000,1.3975000,-0.0024186,-0.0001715,-0.1425904,-0.0024186,-0.0023755,-0.0054911
1.4000000,1.4000000,1.4000000,-0.0023924,-0.0001707,-0.1418177,-0.0023924,-0.0023520,-0.0054305
1.4025000,1.4025000,1.4025000,-0.0023666,-0.0001698,-0.1410506,-0.0023666,-0.0023288,-0.0053707
1.4050000,1.4050000,1.4050000,-0.0023411,-0.0001689,-0.1402890,-0.0023411,-0.0023058,-0.0053117
1.4075000,1.4075000,1.4075000,-0.0023159,-0.0001680,-0.1395329,-0.0023159,-0.0022832,-0.0052534
1.4100000,1.4100000,1.4100000,-0.0022910,-0.0001672,-0.1387822,-0.0022910,-0.0022608,-0.0051958
1.4125000,1.4125000,1.4125000,-0.0022665,-0.0001663,-0.1380369,-0.0022665,-0.0022387,-0.0051390
1.4150000,1.4150000,1.4150000,-0.0022422,-0.0001655,-0.1372970,-0.0022422,-0.0022168,-0.0050829
1.4175000,1.4175000,1.4175000,-0.0022183,-0.0001646,-0.1365624,-0.0022183,-0.0021952,-0.0050275
1.4200000,1.4200000,1.4200000,-0.0021946,-0.0001638,-0.1358330,-0.0021946,-0.0021739,-0.0049728
1.4225000,1.4225000,1.4225000,-0.0021713,-0.0001629,-0.1351088,-0.0021713,-0.0021528,-0.0049187
1.4250000,1.4250000,1.4250000,-0.0021482,-0.0001621,-0.1343898,-0.0021482,-0.0021319,-0.0048654
1.4275000,1.4275000,1.4275000,-0.0021254,-0.0001613,-0.1336759,-0.0021254,-0.0021113,-0.0048127
1.4300000,1.4300000,1.4300000,-0.0021029,-0.0001605,-0.1329671,-0.0021029,-0.0020910,-0.0047607
1.4325000,1.4325000,1.4325000,-0.0020807,-0.0001596,-0.1322632,-0.0020807,-0.0020709,-0.0047093
1.4350000,1.4350000,1.4350000,-0.0020588,-0.0001588,-0.1315644,-0.0020588,-0.0020510,-0.0046585
1.4375000,1.4375000,1.4375000,-0.0020371,-0.0001580,-0.1308705,-0.0020371,-0.0020314,-0.0046084
1.4400000,1.4400000,1.4400000,-0.0020157,-0.0001572,-0.1301814,-0.0020157,-0.0020120,-0.0045589
1.4425000,1.4425000,1.4425000,-0.0019945,-0.0001564,-0.1294972,-0.0019945,-0.0019928,-0.0045101
1.4450000,1.4450000,1.4450000,-0.0019736,-0.0001557,-0.1288179,-0.0019736,-0.0019738,-0.0044618
1.4475000,1.4475000,1.4475000,-0.0019530,-0.0001549,-0.1281432,-0.0019530,-0.0019551,-0.0044141
1.4500000,1.4500000,1.4500000,-0.0019326,-0.0001541,-0.1274733,-0.0019326,-0.0019366,-0.0043670
1.4525000,1.4525000,1.4525000,-0.0019125,-0.0001533,-0.1268081,-0.0019125,-0.0019183,-0.0043205
1.4550000,1.4550000,1.4550000,-0.0018926,-0.0001526,-0.1261475,-0.0018926,-0.0019002,-0.0042745
1.4575000,1.4575000,1.4575000,-0.0018730,-0.0001518,-0.1254915,-0.0018730,-0.0018823,-0.0042291
1.4600000,1.4600000,1.4600000,-0.0018536,-0.0001511,-0.1248400,-0.0018536,-0.0018647,-0.0041843
1.4625000,1.4625000,1.4625000,-0.0018344,-0.0001503,-0.1241931,-0.0018344,-0.0018472,-0.0041400
1.4650000,1.4650000,1.4650000,-0.0018154,-0.0001496,-0.1235507,-0.0018154,-0.0018299,-0.0040963
1.4675000,1.4675000,1.4675000,-0.0017967,-0.0001488,-0.1229126,-0.0017967,-0.0018129,-0.0040531
1.4700000,1.4700000,1.4700000,-0.0017782,-0.0001481,-0.1222790,-0.0017782,-0.0017960,-0.0040104
1.4725000,1.4725000,1.4725000,-0.0017600,-0.0001473,-0.1216498,-0.0017600,-0.0017793,-0.0039682
1.4750000,1.4750000,1.4750000,-0.0017419,-0.0001466,-0.1210248,-0.0017419,-0.0017628,-0.0039265
1.4775000,1.4775000,1.4775000,-0.0017241,-0.0001459,-0.1204042,-0.0017241,-0.0017465,-0.0038854
1.4800000,1.4800000,1.4800000,-0.0017065,-0.0001452,-0.1197878,-0.0017065,-0.0017304,-0.0038447
1.4825000,1.4825000,1.4825000,-0.0016891,-0.0001445,-0.1191756,-0.0016891,-0.0017144,-0.0038045
1.4850000,1.4850000,1.4850000,-0.0016719,-0.0001438,-0.1185676,-0.0016719,-0.0016987,-0.0037649
1.4875000,1.4875000,1.4875000,-0.0016549,-0.0001431,-0.1179637,-0.0016549,-0.0016831,-0.0037256
1.4900000,1.4900000,1.4900000,-0.0016381,-0.0001424,-0.1173640,-0.0016381,-0.0016677,-0.0036869
1.4925000,1.4925000,1.4925000,-0.0016215,-0.0001417,-0.1167683,-0.0016215,-0.0016525,-0.0036486
1.4950000,1.4950000,1.4950000,-0.0016051,-0.0001410,-0.1161766,-0.0016051,-0.0016374,-0.0036108
1.4975000,1.4975000,1.4975000,-0.0015889,-0.0001403,-0.1155890,-0.0015889,-0.0016225,-0.0035734
1.5000000,1.5000000,1.5000000,-0.0015728,-0.0001396,-0.1150053,-0.0015728,-0.0016078,-0.0035365
1.5025000,1.5025000,1.5025000,-0.0015570,-0.0001389,-0.1144255,-0.0015570,-0.0015933,-0.0035000
1.5050000,1.5050000,1.5050000,-0.0015414,-0.0001383,-0.1138497,-0.0015414,-0.0015789,-0.0034639
1.5075000,1.5075000,1.5075000,-0.0015259,-0.0001376,-0.1132777,-0.0015259,-0.0015646,-0.0034283
1.5100000,1.5100000,1.5100000,-0.0015106,-0.0001369,-0.1127096,-0.0015106,-0.0015506,-0.0033931
1.5125000,1.5125000,1.5125000,-0.0014955,-0.0001363,-0.1121453,-0.0014955,-0.0015366,-0.0033583
1.5150000,1.5150000,1.5150000,-0.0014806,-0.0001356,-0.1115847,-0.0014806,-0.0015229,-0.0033239
1.5175000,1.5175000,1.5175000,-0.0014659,-0.0001350,-0.1110279,-0.0014659,-0.0015093,-0.0032899
1.5200000,1.5200000,1.5200000,-0.0014513,-0.0001343,-0.1104748,-0.0014513,-0.0014958,-0.0032563
1.5225000,1.5225000,1.5225000,-0.0014369,-0.0001337,-0.1099253,-0.0014369,-0.0014825,-0.0032231
1.5250000,1.5250000,1.5250000,-0.0014226,-0.0001330,-0.1093795,-0.0014226,-0.0014693,-0.0031903
1.5275000,1.5275000,1.5275000,-0.0014086,-0.0001324,-0.1088374,-0.0014086,-0.0014563,-0.0031579
1.5300000,1.5300000,1.5300000,-0.0013947,-0.0001318,-0.1082988,-0.0013947,-0.0014434,-0.0031258
1.5325000,1.5325000,1.5325000,-0.0013809,-0.0001311,-0.1077638,-0.0013809,-0.0014307,-0.0030942
1.5350000,1.5350000,1.5350000,-0.0013673,-0.0001305,-0.1072323,-0.0013673,-0.0014181,-0.0030629
1.5375000,1.5375000,1.5375000,-0.0013539,-0.0001299,-0.1067043,-0.0013539,-0.0014056,-0.0030319
1.5400000,1.5400000,1.5400000,-0.0013406,-0.0001293,-0.1061797,-0.0013406,-0.0013933,-0.0030014
1.5425000,1.5425000,1.5425000,-0.0013275,-0.0001287,-0.1056587,-0.0013275,-0.0013811,-0.0029711
1.5450000,1.5450000,1.5450000,-0.0013145,-0.0001281,-0.1051410,-0.0013145,-0.0013690,-0.0029412
1.5475000,1.5475000,1.5475000,-0.0013016,-0.0001275,-0.1046267,-0.0013016,-0.0013571,-0.0029117
1.5500000,1.5500000,1.5500000,-0.0012889,-0.0001269,-0.1041158,-0.0012889,-0.0013452,-0.0028825
1.5525000,1.5525000,1.5525000,-0.0012764,-0.0001263,-0.1036082,-0.0012764,-0.0013336,-0.0028537
1.5550000,1.5550000,1.5550000,-0.0012640,-0.0001257,-0.1031039,-0.0012640,-0.0013220,-0.0028251
1.5575000,1.5575000,1.5575000,-0.0012517,-0.0001251,-0.1026029,-0.0012517,-0.0013106,-0.0027969
1.5600000,1.5600000,1.5600000,-0.0012396,-0.0001245,-0.1021051,-0.0012396,-0.0012993,-0.0027691
1.5625000,1.5625000,1.5625000,-0.0012276,-0.0001239,-0.1016106,-0.0012276,-0.0012881,-0.0027415
1.5650000,1.5650000,1.5650000,-0.0012158,-0.0001233,-0.1011192,-0.0012158,-0.0012770,-0.0027143
1.5675000,1.5675000,1.5675000,-0.0012041,-0.0001228,-0.1006311,-0.0012041,-0.0012661,-0.0026873
1.5700000,1.5700000,1.5700000,-0.0011925,-0.0001222,-0.1001460,-0.0011925,-0.0012552,-0.0026607
1.5725000,1.5725000,1.5725000,-0.0011810,-0.0001216,-0.0996641,-0.0011810,-0.0012445,-0.0026344
1.5750000,1.5750000,1.5750000,-0.0011697,-0.0001211,-0.0991853,-0.0011697,-0.0012339,-0.0026083
1.5775000,1.5775000,1.5775000,-0.0011585,-0.0001205,-0.0987096,-0.0011585,-0.0012234,-0.0025826
1.5800000,1.5800000,1.5800000,-0.0011474,-0.0001199,-0.0982369,-0.0011474,-0.0012130,-0.0025572
1.5825000,1.5825000,1.5825000,-0.0011365,-0.0001194,-0.0977672,-0.0011365,-0.0012027,-0.0025320
1.5850000,1.5850000,1.5850000,-0.0011257,-0.0001188,-0.0973005,-0.0011257,-0.0011926,-0.0025071
1.5875000,1.5875000,1.5875000,-0.0011149,-0.0001183,-0.0968368,-0.0011149,-0.0011825,-0.0024825
1.5900000,1.5900000,1.5900000,-0.0011044,-0.0001177,-0.0963761,-0.0011044,-0.0011726,-0.0024582
1.5925000,1.5925000,1.5925000,-0.0010939,-0.0001172,-0.0959182,-0.0010939,-0.0011627,-0.0024342
1.5950000,1.5950000,1.5950000,-0.0010835,-0.0001167,-0.0954633,-0.0010835,-0.0011530,-0.0024104
1.5975000,1.5975000,1.5975000,-0.0010733,-0.0001161,-0.0950113,-0.0010733,-0.0011433,-0.0023869
