# r[nm],d[nm],daligned[nm],U(d)[kj/mol],V(d)[e/nm],Uslab(d)[kJ/mol],UC(d)[kJ/mol],UK(d)[kJ/mol],UCl(d)[kJ/mol]
0.1675000,0.1675000,0.1675000,1854.0422686,-0.5416667,inf,1854.0422686,1171.1815712,inf
0.1700000,0.1700000,0.1700000,1605.9060467,-0.5439863,inf,1605.9060467,1013.0983331,inf
0.1725000,0.1725000,0.1725000,1393.8705500,-0.5309417,inf,1393.8705500,878.2668085,inf
0.1750000,0.1750000,0.1750000,1212.4973421,-0.5179880,inf,1212.4973421,763.0029000,inf
0.1775000,0.1775000,0.1775000,1056.9962802,-0.5051403,inf,1056.9962802,664.2449383,inf
0.1800000,0.1800000,0.1800000,923.3762055,-0.4924128,inf,923.3762055,579.4423751,inf
0.1825000,0.1825000,0.1825000,808.3037880,-0.4798188,inf,808.3037880,506.4654360,inf
0.1850000,0.1850000,0.1850000,708.9886441,-0.4673706,1795.7939256,708.9886441,443.5315949,inf
0.1875000,0.1875000,0.1875000,623.0895959,-0.4550797,1490.3709704,623.0895959,389.1455846,inf
0.1900000,0.1900000,0.1900000,548.6379917,-0.4429569,1242.9153146,548.6379917,342.0503289,inf
0.1925000,0.1925000,0.1925000,483.9748252,-0.4310120,1041.1539645,483.9748252,301.1867087,inf
0.1950000,0.1950000,0.1950000,427.6990496,-0.4192539,875.6865995,427.6990496,265.6604940,1818.2852111
0.1975000,0.1975000,0.1975000,378.6249910,-0.4076907,739.2560826,378.6249910,234.7151005,1614.8810784
0.2000000,0.2000000,0.2000000,335.7471799,-0.3963300,626.2112635,335.7471799,207.7090936,1436.8306688
0.2025000,0.2025000,0.2025000,298.2112427,-0.3851781,532.1162214,298.2112427,184.0975716,1280.6546240
0.2050000,0.2050000,0.2050000,265.2897566,-0.3742411,453.4631689,265.2897566,163.4167245,1143.3893228
0.2075000,0.2075000,0.2075000,236.3621772,-0.3635239,387.4572891,236.3621772,145.2709993,1022.5054930
0.2100000,0.2100000,0.2100000,210.8981177,-0.3530309,331.8478059,210.8981177,129.3224104,915.8403918
0.2125000,0.2125000,0.2125000,188.4433913,-0.3427659,284.8106503,188.4433913,115.2816168,821.5411767
0.2150000,0.2150000,0.2150000,168.6083359,-0.3327319,244.7174533,168.6083359,102.9004605,738.0175228
0.2175000,0.2175000,0.2175000,151.0580299,-0.3229312,208.6354273,151.0580299,91.9657127,663.9018981
0.2200000,0.2200000,0.2200000,135.5040751,-0.3133656,175.5849436,135.5040751,82.2938235,598.0161945
0.2225000,0.2225000,0.2225000,121.6976851,-0.3040363,147.5173157,121.6976851,73.7265016,539.3436438
0.2250000,0.2250000,0.2250000,109.4238589,-0.2949439,124.0950365,109.4238589,66.1269831,487.0051388
0.2275000,0.2275000,0.2275000,98.4964609,-0.2860885,104.5221839,98.4964609,59.3768686,440.2392304
0.2300000,0.2300000,0.2300000,88.7540589,-0.2774701,88.1072593,88.7540589,53.3734297,398.3852021
0.2325000,0.2325000,0.2325000,80.0563933,-0.2690886,74.2899255,80.0563933,48.0273061,360.8687225
0.2350000,0.2350000,0.2350000,72.2813722,-0.2609458,62.6188198,72.2813722,43.2605390,327.1896624
0.2375000,0.2375000,0.2375000,65.3225015,-0.2530474,52.7292272,65.3225015,39.0049051,296.9117343
0.2400000,0.2400000,0.2400000,59.0866763,-0.2454081,44.3250284,59.0866763,35.2005298,269.6536661
0.2425000,0.2425000,0.2425000,53.4922769,-0.2380561,37.1645724,53.4922769,31.7947539,245.0816702
0.2450000,0.2450000,0.2450000,48.4675363,-0.2310385,31.0496629,48.4675363,28.7412264,222.9030097
0.2475000,0.2475000,0.2475000,43.9491598,-0.2244213,25.8169473,43.9491598,25.9991779,202.8604912
0.2500000,0.2500000,0.2500000,39.8811819,-0.2182844,21.3311537,39.8811819,23.5328306,184.7277456
0.2525000,0.2525000,0.2525000,36.2140394,-0.2127093,17.4797539,36.2140394,21.3108977,168.3051771
0.2550000,0.2550000,0.2550000,32.9038283,-0.2077627,14.1687377,32.9038283,19.3061362,153.4164786
0.2575000,0.2575000,0.2575000,29.9117027,-0.2034796,11.3192547,29.9117027,17.4949234,139.9056200
0.2600000,0.2600000,0.2600000,27.2033741,-0.1998505,8.8649369,27.2033741,15.8568408,127.6342215
0.2625000,0.2625000,0.2625000,24.7486762,-0.1968177,6.7497526,24.7486762,14.3742610,116.4792269
0.2650000,0.2650000,0.2650000,22.5211655,-0.1942812,4.9262702,22.5211655,13.0319410,106.3308236
0.2675000,0.2675000,0.2675000,20.4977408,-0.1921118,3.3542349,20.4977408,11.8166306,97.0906111
0.2700000,0.2700000,0.2700000,18.6582666,-0.1901691,1.9993822,18.6582666,10.7167034,88.6700857
0.2725000,0.2725000,0.2725000,16.9851993,-0.1883189,0.8324382,16.9851993,9.7218097,80.9895120
0.2750000,0.2750000,0.2750000,15.4632162,-0.1864468,-0.1717184,15.4632162,8.8225476,73.9771831
0.2775000,0.2775000,0.2775000,14.0788591,-0.1844666,-1.0347388,14.0788591,8.0101561,67.5689491
0.2800000,0.2800000,0.2800000,12.8201945,-0.1823222,-1.7753424,12.8201945,7.2762526,61.7078100
0.2825000,0.2825000,0.2825000,11.6764953,-0.1799865,-2.4097335,11.6764953,6.6126556,56.3433884
0.2850000,0.2850000,0.2850000,10.6379418,-0.1774572,-2.9519372,10.6379418,6.0113362,51.4312115
0.2875000,0.2875000,0.2875000,9.6953483,-0.1747526,-3.4140879,9.6953483,5.4645145,46.9318656
0.2900000,0.2900000,0.2900000,8.8399353,-0.1719076,-3.8066922,8.8399353,4.9648799,42.8101591
0.2925000,0.2925000,0.2925000,8.0631801,-0.1689699,-4.1388697,8.0631801,4.5058669,39.0344114
0.2950000,0.2950000,0.2950000,7.3567776,-0.1659960,-4.4185743,7.3567776,4.0819003,35.5759192
0.2975000,0.2975000,0.2975000,6.7127208,-0.1630465,-4.6527921,6.7127208,3.6885321,32.4085814
0.3000000,0.3000000,0.3000000,6.1234823,-0.1601808,-4.8477163,6.1234823,3.3224303,29.5086288
0.3025000,0.3025000,0.3025000,5.5822422,-0.1574509,-5.0088972,5.5822422,2.9812297,26.8544052
0.3050000,0.3050000,0.3050000,5.0830941,-0.1548957,-5.1413588,5.0830941,2.6632956,24.4261649
0.3075000,0.3075000,0.3075000,4.6211654,-0.1525376,-5.2496795,4.6211654,2.3674633,22.2058708
0.3100000,0.3100000,0.3100000,4.1926190,-0.1503810,-5.3380351,4.1926190,2.0928100,20.1769933
0.3125000,0.3125000,0.3125000,3.7945394,-0.1484148,-5.4102073,3.7945394,1.8384879,18.3243099
0.3150000,0.3150000,0.3150000,3.4247381,-0.1466159,-5.4695621,3.4247381,1.6036266,16.6337101
0.3175000,0.3175000,0.3175000,3.0815293,-0.1449545,-5.5190029,3.0815293,1.3872908,15.0920047
0.3200000,0.3200000,0.3200000,2.7635227,-0.1433991,-5.5609125,2.7635227,1.1884754,13.6867512
0.3225000,0.3225000,0.3225000,2.4694626,-0.1419207,-5.5971021,2.4694626,1.0061186,12.4061111
0.3250000,0.3250000,0.3250000,2.1981253,-0.1404952,-5.6287953,2.1981253,0.8391234,11.2387612
0.3275000,0.3275000,0.3275000,1.9482679,-0.1391054,-5.6566661,1.9482679,0.6863793,10.1738789
0.3300000,0.3300000,0.3300000,1.7186155,-0.1377415,-5.6809373,1.7186155,0.5467860,9.2012045
0.3325000,0.3325000,0.3325000,1.5078706,-0.1364011,-5.7015230,1.5078706,0.4192763,8.3111670
0.3350000,0.3350000,0.3350000,1.3147309,-0.1350881,-5.7181807,1.3147309,0.3028397,7.4950388
0.3375000,0.3375000,0.3375000,1.1379099,-0.1338115,-5.7306400,1.1379099,0.1965426,6.7450748
0.3400000,0.3400000,0.3400000,0.9761547,-0.1325826,-5.7386856,0.9761547,0.0995421,6.0545947
0.3425000,0.3425000,0.3425000,0.8282632,-0.1314127,-5.7421926,0.8282632,0.0110909,5.4179836
0.3450000,0.3450000,0.3450000,0.6930974,-0.1303108,-5.7411305,0.6930974,-0.0694689,4.8306058
0.3475000,0.3475000,0.3475000,0.5695964,-0.1292807,-5.7355507,0.5695964,-0.1427196,4.2886533
0.3500000,0.3500000,0.3500000,0.4567844,-0.1283206,-5.7255749,0.4567844,-0.2091871,3.7889569
0.3525000,0.3525000,0.3525000,0.3537743,-0.1274230,-5.7113856,0.3537743,-0.2693580,3.3287973
0.3550000,0.3550000,0.3550000,0.2597654,-0.1265757,-5.6932192,0.2597654,-0.3236924,2.9057398
0.3575000,0.3575000,0.3575000,0.1740355,-0.1257641,-5.6713604,0.1740355,-0.3726290,2.5175096
0.3600000,0.3600000,0.3600000,0.0959308,-0.1249732,-5.6461367,0.0959308,-0.4165850,2.1619116
0.3625000,0.3625000,0.3625000,0.0248539,-0.1241895,-5.6179132,0.0248539,-0.4559521,1.8367899
0.3650000,0.3650000,0.3650000,-0.0397455,-0.1234019,-5.5870862,-0.0397455,-0.4910925,1.5400180
0.3675000,0.3675000,0.3675000,-0.0983770,-0.1226018,-5.5540727,-0.0983770,-0.5223367,1.2695082
0.3700000,0.3700000,0.3700000,-0.1515129,-0.1217829,-5.5192966,-0.1515129,-0.5499838,1.0232316
0.3725000,0.3725000,0.3725000,-0.1995900,-0.1209398,-5.4831702,-0.1995900,-0.5743043,0.7992401
0.3750000,0.3750000,0.3750000,-0.2430100,-0.1200671,-5.4460781,-0.2430100,-0.5955439,0.5956862
0.3775000,0.3775000,0.3775000,-0.2821418,-0.1191588,-5.4083640,-0.2821418,-0.6139289,0.4108378
0.3800000,0.3800000,0.3800000,-0.3173237,-0.1182078,-5.3703252,-0.3173237,-0.6296711,0.2430875
0.3825000,0.3825000,0.3825000,-0.3488668,-0.1172057,-5.3322123,-0.3488668,-0.6429731,0.0909557
0.3850000,0.3850000,0.3850000,-0.3770587,-0.1161433,-5.2942317,-0.3770587,-0.6540336,-0.0469107
0.3875000,0.3875000,0.3875000,-0.4021666,-0.1150110,-5.2565477,-0.4021666,-0.6630516,-0.1717445
0.3900000,0.3900000,0.3900000,-0.4244409,-0.1137998,-5.2192815,-0.4244409,-0.6702304,-0.2846667
0.3925000,0.3925000,0.3925000,-0.4441173,-0.1125017,-5.1825054,-0.4441173,-0.6757780,-0.3866976
0.3950000,0.3950000,0.3950000,-0.4614204,-0.1111109,-5.1462386,-0.4614204,-0.6799065,-0.4787667
0.3975000,0.3975000,0.3975000,-0.4765667,-0.1096240,-5.1104466,-0.4765667,-0.6828273,-0.5617232
0.4000000,0.4000000,0.4000000,-0.4897678,-0.1080401,-5.0750475,-0.4897678,-0.6847445,-0.6363435
0.4025000,0.4025000,0.4025000,-0.5012325,-0.1063611,-5.0399198,-0.5012325,-0.6858462,-0.7033373
0.4050000,0.4050000,0.4050000,-0.5111682,-0.1045912,-5.0049104,-0.5111682,-0.6862950,-0.7633529
0.4075000,0.4075000,0.4075000,-0.5197792,-0.1027363,-4.9698422,-0.5197792,-0.6862201,-0.8169805
0.4100000,0.4100000,0.4100000,-0.5272637,-0.1008040,-4.9345279,-0.5272637,-0.6857128,-0.8647566
0.4125000,0.4125000,0.4125000,-0.5338077,-0.0988026,-4.8987908,-0.5338077,-0.6848256,-0.9071690
0.4150000,0.4150000,0.4150000,-0.5395771,-0.0967419,-4.8624916,-0.5395771,-0.6835764,-0.9446611
0.4175000,0.4175000,0.4175000,-0.5447109,-0.0946322,-4.8255508,-0.5447109,-0.6819566,-0.9776389
0.4200000,0.4200000,0.4200000,-0.5493147,-0.0924852,-4.7879577,-0.5493147,-0.6799435,-1.0064757
0.4225000,0.4225000,0.4225000,-0.5534581,-0.0903135,-4.7497656,-0.5534581,-0.6775146,-1.0315180
0.4250000,0.4250000,0.4250000,-0.5571759,-0.0881304,-4.7110798,-0.5571759,-0.6746624,-1.0530900
0.4275000,0.4275000,0.4275000,-0.5604733,-0.0859494,-4.6720445,-0.5604733,-0.6714066,-1.0714968
0.4300000,0.4300000,0.4300000,-0.5633357,-0.0837830,-4.6328322,-0.5633357,-0.6678012,-1.0870273
0.4325000,0.4325000,0.4325000,-0.5657410,-0.0816421,-4.5936304,-0.5657410,-0.6639347,-1.0999568
0.4350000,0.4350000,0.4350000,-0.5676740,-0.0795348,-4.5546225,-0.5676740,-0.6599242,-1.1105486
0.4375000,0.4375000,0.4375000,-0.5691384,-0.0774660,-4.5159645,-0.5691384,-0.6559048,-1.1190560
0.4400000,0.4400000,0.4400000,-0.5701663,-0.0754373,-4.4777649,-0.5701663,-0.6520158,-1.1257227
0.4425000,0.4425000,0.4425000,-0.5708206,-0.0734477,-4.4400754,-0.5708206,-0.6483877,-1.1307836
0.4450000,0.4450000,0.4450000,-0.5711939,-0.0714942,-4.4028949,-0.5711939,-0.6451313,-1.1344630
0.4475000,0.4475000,0.4475000,-0.5714008,-0.0695721,-4.3661819,-0.5714008,-0.6423302,-1.1369719
0.4500000,0.4500000,0.4500000,-0.5715689,-0.0676764,-4.3298673,-0.5715689,-0.6400371,-1.1385040
0.4525000,0.4525000,0.4525000,-0.5718276,-0.0658010,-4.2938636,-0.5718276,-0.6382752,-1.1392303
0.4550000,0.4550000,0.4550000,-0.5722981,-0.0639392,-4.2580699,-0.5722981,-0.6370420,-1.1392953
0.4575000,0.4575000,0.4575000,-0.5730835,-0.0620843,-4.2223772,-0.5730835,-0.6363166,-1.1388135
0.4600000,0.4600000,0.4600000,-0.5742625,-0.0602294,-4.1866752,-0.5742625,-0.6360666,-1.1378685
0.4625000,0.4625000,0.4625000,-0.5758854,-0.0583680,-4.1508593,-0.5758854,-0.6362535,-1.1365156
0.4650000,0.4650000,0.4650000,-0.5779743,-0.0564951,-4.1148361,-0.5779743,-0.6368364,-1.1347872
0.4675000,0.4675000,0.4675000,-0.5805263,-0.0546073,-4.0785247,-0.5805263,-0.6377709,-1.1327000
0.4700000,0.4700000,0.4700000,-0.5835197,-0.0527029,-4.0418552,-0.5835197,-0.6390068,-1.1302642
0.4725000,0.4725000,0.4725000,-0.5869195,-0.0507827,-4.0047650,-0.5869195,-0.6404846,-1.1274923
0.4750000,0.4750000,0.4750000,-0.5906832,-0.0488495,-3.9671972,-0.5906832,-0.6421327,-1.1244060
0.4775000,0.4775000,0.4775000,-0.5947621,-0.0469084,-3.9291008,-0.5947621,-0.6438678,-1.1210421
0.4800000,0.4800000,0.4800000,-0.5991019,-0.0449665,-3.8904324,-0.5991019,-0.6455976,-1.1174551
0.4825000,0.4825000,0.4825000,-0.6036402,-0.0430327,-3.8511593,-0.6036402,-0.6472261,-1.1137174
0.4850000,0.4850000,0.4850000,-0.6083052,-0.0411168,-3.8112624,-0.6083052,-0.6486619,-1.1099168
0.4875000,0.4875000,0.4875000,-0.6130152,-0.0392295,-3.7707382,-0.6130152,-0.6498266,-1.1061512
0.4900000,0.4900000,0.4900000,-0.6176802,-0.0373811,-3.7295995,-0.6176802,-0.6506625,-1.1025209
0.4925000,0.4925000,0.4925000,-0.6222069,-0.0355808,-3.6878748,-0.6222069,-0.6511378,-1.0991192
0.4950000,0.4950000,0.4950000,-0.6265046,-0.0338365,-3.6456068,-0.6265046,-0.6512468,-1.0960239
0.4975000,0.4975000,0.4975000,-0.6304933,-0.0321543,-3.6028503,-0.6304933,-0.6510059,-1.0932907
0.5000000,0.5000000,0.5000000,-0.6341100,-0.0305381,-3.5596690,-0.6341100,-0.6504444,-1.0909495
0.5025000,0.5025000,0.5025000,-0.6373144,-0.0289903,-3.5161334,-0.6373144,-0.6495939,-1.0890058
0.5050000,0.5050000,0.5050000,-0.6400890,-0.0275115,-3.4723182,-0.6400890,-0.6484786,-1.0874444
0.5075000,0.5075000,0.5075000,-0.6424366,-0.0261014,-3.4282996,-0.6424366,-0.6471076,-1.0862352
0.5100000,0.5100000,0.5100000,-0.6443727,-0.0247591,-3.3841539,-0.6443727,-0.6454728,-1.0853388
0.5125000,0.5125000,0.5125000,-0.6459166,-0.0234841,-3.3399554,-0.6459166,-0.6435499,-1.0847101
0.5150000,0.5150000,0.5150000,-0.6470830,-0.0222757,-3.2957755,-0.6470830,-0.6413032,-1.0843003
0.5175000,0.5175000,0.5175000,-0.6478752,-0.0211340,-3.2516821,-0.6478752,-0.6386923,-1.0840567
0.5200000,0.5200000,0.5200000,-0.6482826,-0.0200591,-3.2077381,-0.6482826,-0.6356785,-1.0839220
0.5225000,0.5225000,0.5225000,-0.6482815,-0.0190511,-3.1640020,-0.6482815,-0.6322297,-1.0838339
0.5250000,0.5250000,0.5250000,-0.6478395,-0.0181096,-3.1205271,-0.6478395,-0.6283246,-1.0837261
0.5275000,0.5275000,0.5275000,-0.6469208,-0.0172334,-3.0773614,-0.6469208,-0.6239550,-1.0835308
0.5300000,0.5300000,0.5300000,-0.6454918,-0.0164200,-3.0345484,-0.6454918,-0.6191263,-1.0831829
0.5325000,0.5325000,0.5325000,-0.6435263,-0.0156662,-2.9921263,-0.6435263,-0.6138576,-1.0826237
0.5350000,0.5350000,0.5350000,-0.6410085,-0.0149676,-2.9501289,-0.6410085,-0.6081781,-1.0818049
0.5375000,0.5375000,0.5375000,-0.6379357,-0.0143196,-2.9085856,-0.6379357,-0.6021233,-1.0806902
0.5400000,0.5400000,0.5400000,-0.6343179,-0.0137172,-2.8675218,-0.6343179,-0.5957304,-1.0792547
0.5425000,0.5425000,0.5425000,-0.6301775,-0.0131556,-2.8269591,-0.6301775,-0.5890333,-1.0774816
0.5450000,0.5450000,0.5450000,-0.6255454,-0.0126304,-2.7869156,-0.6255454,-0.5820604,-1.0753583
0.5475000,0.5475000,0.5475000,-0.6204579,-0.0121380,-2.7474063,-0.6204579,-0.5748333,-1.0728712
0.5500000,0.5500000,0.5500000,-0.6149515,-0.0116753,-2.7084433,-0.6149515,-0.5673675,-1.0700024
0.5525000,0.5525000,0.5525000,-0.6090597,-0.0112405,-2.6700362,-0.6090597,-0.5596740,-1.0667269
0.5550000,0.5550000,0.5550000,-0.6028107,-0.0108321,-2.6321921,-0.6028107,-0.5517616,-1.0630135
0.5575000,0.5575000,0.5575000,-0.5962265,-0.0104496,-2.5949162,-0.5962265,-0.5436390,-1.0588265
0.5600000,0.5600000,0.5600000,-0.5893237,-0.0100929,-2.5582115,-0.5893237,-0.5353163,-1.0541289
0.5625000,0.5625000,0.5625000,-0.5821155,-0.0097619,-2.5220798,-0.5821155,-0.5268063,-1.0488868
0.5650000,0.5650000,0.5650000,-0.5746130,-0.0094566,-2.4865210,-0.5746130,-0.5181245,-1.0430731
0.5675000,0.5675000,0.5675000,-0.5668279,-0.0091769,-2.4515340,-0.5668279,-0.5092896,-1.0366701
0.5700000,0.5700000,0.5700000,-0.5587734,-0.0089223,-2.4171163,-0.5587734,-0.5003226,-1.0296719
0.5725000,0.5725000,0.5725000,-0.5504654,-0.0086922,-2.3832648,-0.5504654,-0.4912464,-1.0220838
0.5750000,0.5750000,0.5750000,-0.5419226,-0.0084857,-2.3499750,-0.5419226,-0.4820851,-1.0139218
0.5775000,0.5775000,0.5775000,-0.5331671,-0.0083014,-2.3172422,-0.5331671,-0.4728634,-1.0052094
0.5800000,0.5800000,0.5800000,-0.5242230,-0.0081380,-2.2850605,-0.5242230,-0.4636057,-0.9959744
0.5825000,0.5825000,0.5825000,-0.5151167,-0.0079939,-2.2534239,-0.5151167,-0.4543357,-0.9862464
0.5850000,0.5850000,0.5850000,-0.5058757,-0.0078675,-2.2223257,-0.5058757,-0.4450762,-0.9760537
0.5875000,0.5875000,0.5875000,-0.4965280,-0.0077569,-2.1917590,-0.4965280,-0.4358484,-0.9654221
0.5900000,0.5900000,0.5900000,-0.4871015,-0.0076607,-2.1617162,-0.4871015,-0.4266719,-0.9543742
0.5925000,0.5925000,0.5925000,-0.4776235,-0.0075770,-2.1321898,-0.4776235,-0.4175645,-0.9429302
0.5950000,0.5950000,0.5950000,-0.4681201,-0.0075045,-2.1031719,-0.4681201,-0.4085423,-0.9311084
0.5975000,0.5975000,0.5975000,-0.4586159,-0.0074416,-2.0746546,-0.4586159,-0.3996196,-0.9189269
0.6000000,0.6000000,0.6000000,-0.4491339,-0.0073870,-2.0466296,-0.4491339,-0.3908089,-0.9064044
0.6025000,0.6025000,0.6025000,-0.4396951,-0.0073394,-2.0190887,-0.4396951,-0.3821209,-0.8935612
0.6050000,0.6050000,0.6050000,-0.4303186,-0.0072978,-1.9920236,-0.4303186,-0.3735648,-0.8804202
0.6075000,0.6075000,0.6075000,-0.4210216,-0.0072612,-1.9654261,-0.4210216,-0.3651485,-0.8670066
0.6100000,0.6100000,0.6100000,-0.4118193,-0.0072287,-1.9392877,-0.4118193,-0.3568783,-0.8533482
0.6125000,0.6125000,0.6125000,-0.4027252,-0.0071994,-1.9136002,-0.4027252,-0.3487594,-0.8394750
0.6150000,0.6150000,0.6150000,-0.3937508,-0.0071728,-1.8883553,-0.3937508,-0.3407959,-0.8254186
0.6175000,0.6175000,0.6175000,-0.3849061,-0.0071482,-1.8635447,-0.3849061,-0.3329907,-0.8112117
0.6200000,0.6200000,0.6200000,-0.3761996,-0.0071251,-1.8391603,-0.3761996,-0.3253462,-0.7968877
0.6225000,0.6225000,0.6225000,-0.3676383,-0.0071030,-1.8151939,-0.3676383,-0.3178635,-0.7824796
0.6250000,0.6250000,0.6250000,-0.3592280,-0.0070817,-1.7916377,-0.3592280,-0.3105434,-0.7680200
0.6275000,0.6275000,0.6275000,-0.3509733,-0.0070607,-1.7684837,-0.3509733,-0.3033860,-0.7535403
0.6300000,0.6300000,0.6300000,-0.3428777,-0.0070398,-1.7457240,-0.3428777,-0.2963908,-0.7390704
0.6325000,0.6325000,0.6325000,-0.3349439,-0.0070188,-1.7233511,-0.3349439,-0.2895568,-0.7246387
0.6350000,0.6350000,0.6350000,-0.3271737,-0.0069975,-1.7013572,-0.3271737,-0.2828827,-0.7102714
0.6375000,0.6375000,0.6375000,-0.3195681,-0.0069757,-1.6797351,-0.3195681,-0.2763669,-0.6959927
0.6400000,0.6400000,0.6400000,-0.3121275,-0.0069534,-1.6584774,-0.3121275,-0.2700074,-0.6818248
0.6425000,0.6425000,0.6425000,-0.3048519,-0.0069304,-1.6375767,-0.3048519,-0.2638019,-0.6677875
0.6450000,0.6450000,0.6450000,-0.2977405,-0.0069066,-1.6170262,-0.2977405,-0.2577481,-0.6538988
0.6475000,0.6475000,0.6475000,-0.2907923,-0.0068821,-1.5968188,-0.2907923,-0.2518433,-0.6401744
0.6500000,0.6500000,0.6500000,-0.2840058,-0.0068568,-1.5769478,-0.2840058,-0.2460850,-0.6266281
0.6525000,0.6525000,0.6525000,-0.2773793,-0.0068306,-1.5574064,-0.2773793,-0.2404702,-0.6132720
0.6550000,0.6550000,0.6550000,-0.2709108,-0.0068035,-1.5381880,-0.2709108,-0.2349961,-0.6001163
0.6575000,0.6575000,0.6575000,-0.2645979,-0.0067756,-1.5192864,-0.2645979,-0.2296597,-0.5871696
0.6600000,0.6600000,0.6600000,-0.2584384,-0.0067469,-1.5006951,-0.2584384,-0.2244581,-0.5744390
0.6625000,0.6625000,0.6625000,-0.2524295,-0.0067173,-1.4824080,-0.2524295,-0.2193880,-0.5619305
0.6650000,0.6650000,0.6650000,-0.2465685,-0.0066869,-1.4644190,-0.2465685,-0.2144467,-0.5496486
0.6675000,0.6675000,0.6675000,-0.2408527,-0.0066558,-1.4467224,-0.2408527,-0.2096309,-0.5375966
0.6700000,0.6700000,0.6700000,-0.2352790,-0.0066238,-1.4293122,-0.2352790,-0.2049377,-0.5257770
0.6725000,0.6725000,0.6725000,-0.2298447,-0.0065912,-1.4121828,-0.2298447,-0.2003641,-0.5141914
0.6750000,0.6750000,0.6750000,-0.2245466,-0.0065578,-1.3953286,-0.2245466,-0.1959070,-0.5028404
0.6775000,0.6775000,0.6775000,-0.2193818,-0.0065238,-1.3787443,-0.2193818,-0.1915636,-0.4917241
0.6800000,0.6800000,0.6800000,-0.2143472,-0.0064891,-1.3624245,-0.2143472,-0.1873309,-0.4808419
0.6825000,0.6825000,0.6825000,-0.2094398,-0.0064539,-1.3463640,-0.2094398,-0.1832061,-0.4701925
0.6850000,0.6850000,0.6850000,-0.2046566,-0.0064181,-1.3305578,-0.2046566,-0.1791863,-0.4597742
0.6875000,0.6875000,0.6875000,-0.1999945,-0.0063818,-1.3150009,-0.1999945,-0.1752688,-0.4495850
0.6900000,0.6900000,0.6900000,-0.1954507,-0.0063451,-1.2996884,-0.1954507,-0.1714508,-0.4396224
0.6925000,0.6925000,0.6925000,-0.1910221,-0.0063078,-1.2846156,-0.1910221,-0.1677298,-0.4298836
0.6950000,0.6950000,0.6950000,-0.1867058,-0.0062702,-1.2697777,-0.1867058,-0.1641031,-0.4203656
0.6975000,0.6975000,0.6975000,-0.1824991,-0.0062322,-1.2551704,-0.1824991,-0.1605682,-0.4110651
0.7000000,0.7000000,0.7000000,-0.1783991,-0.0061938,-1.2407891,-0.1783991,-0.1571225,-0.4019785
0.7025000,0.7025000,0.7025000,-0.1744030,-0.0061552,-1.2266294,-0.1744030,-0.1537637,-0.3931024
0.7050000,0.7050000,0.7050000,-0.1705081,-0.0061163,-1.2126872,-0.1705081,-0.1504895,-0.3844330
0.7075000,0.7075000,0.7075000,-0.1667117,-0.0060771,-1.1989583,-0.1667117,-0.1472974,-0.3759664
0.7100000,0.7100000,0.7100000,-0.1630113,-0.0060377,-1.1854386,-0.1630113,-0.1441852,-0.3676987
0.7125000,0.7125000,0.7125000,-0.1594043,-0.0059981,-1.1721241,-0.1594043,-0.1411508,-0.3596259
0.7150000,0.7150000,0.7150000,-0.1558882,-0.0059583,-1.1590109,-0.1558882,-0.1381920,-0.3517440
0.7175000,0.7175000,0.7175000,-0.1524606,-0.0059184,-1.1460953,-0.1524606,-0.1353068,-0.3440490
0.7200000,0.7200000,0.7200000,-0.1491191,-0.0058784,-1.1333735,-0.1491191,-0.1324931,-0.3365369
0.7225000,0.7225000,0.7225000,-0.1458614,-0.0058383,-1.1208419,-0.1458614,-0.1297489,-0.3292036
0.7250000,0.7250000,0.7250000,-0.1426853,-0.0057981,-1.1084969,-0.1426853,-0.1270724,-0.3220451
0.7275000,0.7275000,0.7275000,-0.1395884,-0.0057579,-1.0963350,-0.1395884,-0.1244617,-0.3150575
0.7300000,0.7300000,0.7300000,-0.1365687,-0.0057177,-1.0843529,-0.1365687,-0.1219149,-0.3082368
0.7325000,0.7325000,0.7325000,-0.1336241,-0.0056775,-1.0725472,-0.1336241,-0.1194304,-0.3015791
0.7350000,0.7350000,0.7350000,-0.1307526,-0.0056373,-1.0609147,-0.1307526,-0.1170064,-0.2950805
0.7375000,0.7375000,0.7375000,-0.1279521,-0.0055971,-1.0494522,-0.1279521,-0.1146413,-0.2887373
0.7400000,0.7400000,0.7400000,-0.1252208,-0.0055569,-1.0381565,-0.1252208,-0.1123334,-0.2825457
0.7425000,0.7425000,0.7425000,-0.1225568,-0.0055168,-1.0270246,-0.1225568,-0.1100812,-0.2765020
0.7450000,0.7450000,0.7450000,-0.1199581,-0.0054768,-1.0160536,-0.1199581,-0.1078832,-0.2706026
0.7475000,0.7475000,0.7475000,-0.1174232,-0.0054369,-1.0052404,-0.1174232,-0.1057379,-0.2648439
0.7500000,0.7500000,0.7500000,-0.1149501,-0.0053971,-0.9945824,-0.1149501,-0.1036439,-0.2592225
0.7525000,0.7525000,0.7525000,-0.1125374,-0.0053575,-0.9840765,-0.1125374,-0.1015997,-0.2537350
0.7550000,0.7550000,0.7550000,-0.1101833,-0.0053179,-0.9737203,-0.1101833,-0.0996041,-0.2483780
0.7575000,0.7575000,0.7575000,-0.1078862,-0.0052785,-0.9635108,-0.1078862,-0.0976557,-0.2431482
0.7600000,0.7600000,0.7600000,-0.1056446,-0.0052392,-0.9534457,-0.1056446,-0.0957532,-0.2380424
0.7625000,0.7625000,0.7625000,-0.1034570,-0.0052001,-0.9435222,-0.1034570,-0.0938954,-0.2330576
0.7650000,0.7650000,0.7650000,-0.1013220,-0.0051612,-0.9337378,-0.1013220,-0.0920812,-0.2281906
0.7675000,0.7675000,0.7675000,-0.0992382,-0.0051225,-0.9240902,-0.0992382,-0.0903092,-0.2234384
0.7700000,0.7700000,0.7700000,-0.0972041,-0.0050839,-0.9145769,-0.0972041,-0.0885785,-0.2187983
0.7725000,0.7725000,0.7725000,-0.0952184,-0.0050455,-0.9051955,-0.0952184,-0.0868879,-0.2142672
0.7750000,0.7750000,0.7750000,-0.0932799,-0.0050074,-0.8959438,-0.0932799,-0.0852364,-0.2098424
0.7775000,0.7775000,0.7775000,-0.0913873,-0.0049694,-0.8868195,-0.0913873,-0.0836229,-0.2055213
0.7800000,0.7800000,0.7800000,-0.0895394,-0.0049317,-0.8778204,-0.0895394,-0.0820464,-0.2013012
0.7825000,0.7825000,0.7825000,-0.0877349,-0.0048941,-0.8689443,-0.0877349,-0.0805059,-0.1971794
0.7850000,0.7850000,0.7850000,-0.0859727,-0.0048568,-0.8601891,-0.0859727,-0.0790005,-0.1931536
0.7875000,0.7875000,0.7875000,-0.0842518,-0.0048198,-0.8515528,-0.0842518,-0.0775292,-0.1892212
0.7900000,0.7900000,0.7900000,-0.0825710,-0.0047829,-0.8430332,-0.0825710,-0.0760913,-0.1853799
0.7925000,0.7925000,0.7925000,-0.0809292,-0.0047463,-0.8346285,-0.0809292,-0.0746857,-0.1816274
0.7950000,0.7950000,0.7950000,-0.0793255,-0.0047100,-0.8263366,-0.0793255,-0.0733117,-0.1779614
0.7975000,0.7975000,0.7975000,-0.0777588,-0.0046738,-0.8181557,-0.0777588,-0.0719685,-0.1743796
0.8000000,0.8000000,0.8000000,-0.0762282,-0.0046380,-0.8100839,-0.0762282,-0.0706552,-0.1708800
0.8025000,0.8025000,0.8025000,-0.0747327,-0.0046023,-0.8021193,-0.0747327,-0.0693711,-0.1674605
0.8050000,0.8050000,0.8050000,-0.0732714,-0.0045670,-0.7942602,-0.0732714,-0.0681154,-0.1641191
0.8075000,0.8075000,0.8075000,-0.0718435,-0.0045319,-0.7865048,-0.0718435,-0.0668874,-0.1608537
0.8100000,0.8100000,0.8100000,-0.0704480,-0.0044970,-0.7788514,-0.0704480,-0.0656865,-0.1576625
0.8125000,0.8125000,0.8125000,-0.0690842,-0.0044624,-0.7712983,-0.0690842,-0.0645118,-0.1545435
0.8150000,0.8150000,0.8150000,-0.0677512,-0.0044280,-0.7638437,-0.0677512,-0.0633628,-0.1514950
0.8175000,0.8175000,0.8175000,-0.0664482,-0.0043939,-0.7564862,-0.0664482,-0.0622387,-0.1485151
0.8200000,0.8200000,0.8200000,-0.0651745,-0.0043601,-0.7492241,-0.0651745,-0.0611390,-0.1456022
0.8225000,0.8225000,0.8225000,-0.0639292,-0.0043265,-0.7420559,-0.0639292,-0.0600631,-0.1427546
0.8250000,0.8250000,0.8250000,-0.0627118,-0.0042932,-0.7349800,-0.0627118,-0.0590103,-0.1399707
0.8275000,0.8275000,0.8275000,-0.0615214,-0.0042602,-0.7279949,-0.0615214,-0.0579801,-0.1372487
0.8300000,0.8300000,0.8300000,-0.0603575,-0.0042274,-0.7210992,-0.0603575,-0.0569720,-0.1345873
0.8325000,0.8325000,0.8325000,-0.0592192,-0.0041949,-0.7142914,-0.0592192,-0.0559853,-0.1319849
0.8350000,0.8350000,0.8350000,-0.0581061,-0.0041626,-0.7075701,-0.0581061,-0.0550195,-0.1294400
0.8375000,0.8375000,0.8375000,-0.0570173,-0.0041306,-0.7009340,-0.0570173,-0.0540741,-0.1269512
0.8400000,0.8400000,0.8400000,-0.0559525,-0.0040989,-0.6943816,-0.0559525,-0.0531487,-0.1245171
0.8425000,0.8425000,0.8425000,-0.0549109,-0.0040674,-0.6879116,-0.0549109,-0.0522427,-0.1221364
0.8450000,0.8450000,0.8450000,-0.0538919,-0.0040362,-0.6815228,-0.0538919,-0.0513556,-0.1198077
0.8475000,0.8475000,0.8475000,-0.0528950,-0.0040053,-0.6752138,-0.0528950,-0.0504870,-0.1175298
0.8500000,0.8500000,0.8500000,-0.0519197,-0.0039746,-0.6689834,-0.0519197,-0.0496365,-0.1153015
0.8525000,0.8525000,0.8525000,-0.0509655,-0.0039441,-0.6628303,-0.0509655,-0.0488036,-0.1131214
0.8550000,0.8550000,0.8550000,-0.0500317,-0.0039140,-0.6567534,-0.0500317,-0.0479879,-0.1109885
0.8575000,0.8575000,0.8575000,-0.0491179,-0.0038840,-0.6507514,-0.0491179,-0.0471889,-0.1089016
0.8600000,0.8600000,0.8600000,-0.0482237,-0.0038544,-0.6448233,-0.0482237,-0.0464063,-0.1068595
0.8625000,0.8625000,0.8625000,-0.0473485,-0.0038250,-0.6389677,-0.0473485,-0.0456397,-0.1048613
0.8650000,0.8650000,0.8650000,-0.0464918,-0.0037958,-0.6331837,-0.0464918,-0.0448887,-0.1029058
0.8675000,0.8675000,0.8675000,-0.0456533,-0.0037669,-0.6274702,-0.0456533,-0.0441529,-0.1009919
0.8700000,0.8700000,0.8700000,-0.0448325,-0.0037383,-0.6218259,-0.0448325,-0.0434319,-0.0991188
0.8725000,0.8725000,0.8725000,-0.0440290,-0.0037099,-0.6162500,-0.0440290,-0.0427255,-0.0972854
0.8750000,0.8750000,0.8750000,-0.0432423,-0.0036817,-0.6107413,-0.0432423,-0.0420333,-0.0954907
0.8775000,0.8775000,0.8775000,-0.0424720,-0.0036538,-0.6052988,-0.0424720,-0.0413548,-0.0937339
0.8800000,0.8800000,0.8800000,-0.0417178,-0.0036261,-0.5999215,-0.0417178,-0.0406899,-0.0920140
0.8825000,0.8825000,0.8825000,-0.0409792,-0.0035987,-0.5946085,-0.0409792,-0.0400383,-0.0903302
0.8850000,0.8850000,0.8850000,-0.0402560,-0.0035715,-0.5893587,-0.0402560,-0.0393995,-0.0886816
0.8875000,0.8875000,0.8875000,-0.0395477,-0.0035446,-0.5841713,-0.0395477,-0.0387733,-0.0870674
0.8900000,0.8900000,0.8900000,-0.0388539,-0.0035179,-0.5790452,-0.0388539,-0.0381594,-0.0854868
0.8925000,0.8925000,0.8925000,-0.0381745,-0.0034914,-0.5739796,-0.0381745,-0.0375575,-0.0839389
0.8950000,0.8950000,0.8950000,-0.0375089,-0.0034652,-0.5689736,-0.0375089,-0.0369674,-0.0824231
0.8975000,0.8975000,0.8975000,-0.0368569,-0.0034392,-0.5640262,-0.0368569,-0.0363887,-0.0809385
0.9000000,0.9000000,0.9000000,-0.0362181,-0.0034134,-0.5591367,-0.0362181,-0.0358213,-0.0794844
0.9025000,0.9025000,0.9025000,-0.0355923,-0.0033879,-0.5543042,-0.0355923,-0.0352648,-0.0780602
0.9050000,0.9050000,0.9050000,-0.0349792,-0.0033626,-0.5495278,-0.0349792,-0.0347191,-0.0766651
0.9075000,0.9075000,0.9075000,-0.0343784,-0.0033375,-0.5448067,-0.0343784,-0.0341838,-0.0752985
0.9100000,0.9100000,0.9100000,-0.0337897,-0.0033127,-0.5401401,-0.0337897,-0.0336588,-0.0739596
0.9125000,0.9125000,0.9125000,-0.0332128,-0.0032880,-0.5355272,-0.0332128,-0.0331437,-0.0726480
0.9150000,0.9150000,0.9150000,-0.0326474,-0.0032636,-0.5309673,-0.0326474,-0.0326385,-0.0713628
0.9175000,0.9175000,0.9175000,-0.0320933,-0.0032395,-0.5264596,-0.0320933,-0.0321428,-0.0701036
0.9200000,0.9200000,0.9200000,-0.0315502,-0.0032155,-0.5220032,-0.0315502,-0.0316564,-0.0688698
0.9225000,0.9225000,0.9225000,-0.0310178,-0.0031917,-0.5175976,-0.0310178,-0.0311793,-0.0676606
0.9250000,0.9250000,0.9250000,-0.0304960,-0.0031682,-0.5132419,-0.0304960,-0.0307110,-0.0664757
0.9275000,0.9275000,0.9275000,-0.0299844,-0.0031448,-0.5089354,-0.0299844,-0.0302515,-0.0653145
0.9300000,0.9300000,0.9300000,-0.0294829,-0.0031217,-0.5046775,-0.0294829,-0.0298006,-0.0641763
0.9325000,0.9325000,0.9325000,-0.0289911,-0.0030988,-0.5004674,-0.0289911,-0.0293580,-0.0630608
0.9350000,0.9350000,0.9350000,-0.0285090,-0.0030761,-0.4963045,-0.0285090,-0.0289236,-0.0619673
0.9375000,0.9375000,0.9375000,-0.0280363,-0.0030536,-0.4921882,-0.0280363,-0.0284972,-0.0608955
0.9400000,0.9400000,0.9400000,-0.0275727,-0.0030313,-0.4881176,-0.0275727,-0.0280787,-0.0598447
0.9425000,0.9425000,0.9425000,-0.0271182,-0.0030092,-0.4840923,-0.0271182,-0.0276678,-0.0588146
0.9450000,0.9450000,0.9450000,-0.0266723,-0.0029873,-0.4801116,-0.0266723,-0.0272644,-0.0578047
0.9475000,0.9475000,0.9475000,-0.0262351,-0.0029656,-0.4761748,-0.0262351,-0.0268684,-0.0568145
0.9500000,0.9500000,0.9500000,-0.0258063,-0.0029441,-0.4722814,-0.0258063,-0.0264795,-0.0558436
0.9525000,0.9525000,0.9525000,-0.0253856,-0.0029228,-0.4684307,-0.0253856,-0.0260977,-0.0548915
0.9550000,0.9550000,0.9550000,-0.0249730,-0.0029017,-0.4646222,-0.0249730,-0.0257227,-0.0539580
0.9575000,0.9575000,0.9575000,-0.0245682,-0.0028807,-0.4608552,-0.0245682,-0.0253545,-0.0530424
0.9600000,0.9600000,0.9600000,-0.0241711,-0.0028600,-0.4571293,-0.0241711,-0.0249929,-0.0521446
0.9625000,0.9625000,0.9625000,-0.0237815,-0.0028394,-0.4534438,-0.0237815,-0.0246377,-0.0512640
0.9650000,0.9650000,0.9650000,-0.0233993,-0.0028190,-0.4497982,-0.0233993,-0.0242888,-0.0504002
0.9675000,0.9675000,0.9675000,-0.0230243,-0.0027989,-0.4461919,-0.0230243,-0.0239462,-0.0495531
0.9700000,0.9700000,0.9700000,-0.0226562,-0.0027788,-0.4426245,-0.0226562,-0.0236095,-0.0487221
0.9725000,0.9725000,0.9725000,-0.0222951,-0.0027590,-0.4390953,-0.0222951,-0.0232788,-0.0479069
0.9750000,0.9750000,0.9750000,-0.0219407,-0.0027394,-0.4356040,-0.0219407,-0.0229539,-0.0471071
0.9775000,0.9775000,0.9775000,-0.0215929,-0.0027199,-0.4321498,-0.0215929,-0.0226347,-0.0463226
0.9800000,0.9800000,0.9800000,-0.0212516,-0.0027006,-0.4287325,-0.0212516,-0.0223211,-0.0455528
0.9825000,0.9825000,0.9825000,-0.0209165,-0.0026815,-0.4253514,-0.0209165,-0.0220129,-0.0447976
0.9850000,0.9850000,0.9850000,-0.0205877,-0.0026625,-0.4220060,-0.0205877,-0.0217101,-0.0440565
0.9875000,0.9875000,0.9875000,-0.0202649,-0.0026437,-0.4186960,-0.0202649,-0.0214125,-0.0433294
0.9900000,0.9900000,0.9900000,-0.0199480,-0.0026251,-0.4154209,-0.0199480,-0.0211200,-0.0426158
0.9925000,0.9925000,0.9925000,-0.0196369,-0.0026066,-0.4121801,-0.0196369,-0.0208325,-0.0419156
0.9950000,0.9950000,0.9950000,-0.0193315,-0.0025883,-0.4089732,-0.0193315,-0.0205500,-0.0412284
0.9975000,0.9975000,0.9975000,-0.0190317,-0.0025702,-0.4057998,-0.0190317,-0.0202722,-0.0405539
1.0000000,1.0000000,1.0000000,-0.0187373,-0.0025522,-0.4026595,-0.0187373,-0.0199992,-0.0398919
1.0025000,1.0025000,1.0025000,-0.0184482,-0.0025344,-0.3995517,-0.0184482,-0.0197308,-0.0392422
1.0050000,1.0050000,1.0050000,-0.0181644,-0.0025168,-0.3964762,-0.0181644,-0.0194670,-0.0386044
1.0075000,1.0075000,1.0075000,-0.0178856,-0.0024993,-0.3934324,-0.0178856,-0.0192076,-0.0379783
1.0100000,1.0100000,1.0100000,-0.0176119,-0.0024819,-0.3904199,-0.0176119,-0.0189526,-0.0373637
1.0125000,1.0125000,1.0125000,-0.0173430,-0.0024647,-0.3874384,-0.0173430,-0.0187018,-0.0367604
1.0150000,1.0150000,1.0150000,-0.0170790,-0.0024477,-0.3844874,-0.0170790,-0.0184552,-0.0361681
1.0175000,1.0175000,1.0175000,-0.0168197,-0.0024308,-0.3815666,-0.0168197,-0.0182127,-0.0355865
1.0200000,1.0200000,1.0200000,-0.0165649,-0.0024141,-0.3786756,-0.0165649,-0.0179742,-0.0350155
1.0225000,1.0225000,1.0225000,-0.0163147,-0.0023975,-0.3758139,-0.0163147,-0.0177397,-0.0344549
1.0250000,1.0250000,1.0250000,-0.0160689,-0.0023811,-0.3729812,-0.0160689,-0.0175091,-0.0339043
1.0275000,1.0275000,1.0275000,-0.0158275,-0.0023648,-0.3701772,-0.0158275,-0.0172822,-0.0333637
1.0300000,1.0300000,1.0300000,-0.0155903,-0.0023486,-0.3674014,-0.0155903,-0.0170590,-0.0328328
1.0325000,1.0325000,1.0325000,-0.0153572,-0.0023326,-0.3646535,-0.0153572,-0.0168395,-0.0323115
1.0350000,1.0350000,1.0350000,-0.0151282,-0.0023167,-0.3619332,-0.0151282,-0.0166236,-0.0317994
1.0375000,1.0375000,1.0375000,-0.0149032,-0.0023010,-0.3592402,-0.0149032,-0.0164112,-0.0312965
1.0400000,1.0400000,1.0400000,-0.0146822,-0.0022854,-0.3565739,-0.0146822,-0.0162022,-0.0308026
1.0425000,1.0425000,1.0425000,-0.0144649,-0.0022699,-0.3539343,-0.0144649,-0.0159966,-0.0303174
1.0450000,1.0450000,1.0450000,-0.0142515,-0.0022546,-0.3513208,-0.0142515,-0.0157943,-0.0298409
1.0475000,1.0475000,1.0475000,-0.0140417,-0.0022394,-0.3487332,-0.0140417,-0.0155952,-0.0293728
1.0500000,1.0500000,1.0500000,-0.0138355,-0.0022243,-0.3461711,-0.0138355,-0.0153993,-0.0289129
1.0525000,1.0525000,1.0525000,-0.0136329,-0.0022094,-0.3436343,-0.0136329,-0.0152065,-0.0284611
1.0550000,1.0550000,1.0550000,-0.0134337,-0.0021946,-0.3411224,-0.0134337,-0.0150168,-0.0280173
1.0575000,1.0575000,1.0575000,-0.0132380,-0.0021799,-0.3386352,-0.0132380,-0.0148301,-0.0275812
1.0600000,1.0600000,1.0600000,-0.0130455,-0.0021653,-0.3361722,-0.0130455,-0.0146464,-0.0271527
1.0625000,1.0625000,1.0625000,-0.0128564,-0.0021509,-0.3337332,-0.0128564,-0.0144655,-0.0267318
1.0650000,1.0650000,1.0650000,-0.0126704,-0.0021366,-0.3313180,-0.0126704,-0.0142875,-0.0263181
1.0675000,1.0675000,1.0675000,-0.0124876,-0.0021224,-0.3289262,-0.0124876,-0.0141123,-0.0259116
1.0700000,1.0700000,1.0700000,-0.0123079,-0.0021083,-0.3265575,-0.0123079,-0.0139398,-0.0255122
1.0725000,1.0725000,1.0725000,-0.0121313,-0.0020944,-0.3242117,-0.0121313,-0.0137699,-0.0251197
1.0750000,1.0750000,1.0750000,-0.0119575,-0.0020806,-0.3218885,-0.0119575,-0.0136028,-0.0247339
1.0775000,1.0775000,1.0775000,-0.0117867,-0.0020669,-0.3195876,-0.0117867,-0.0134382,-0.0243548
1.0800000,1.0800000,1.0800000,-0.0116188,-0.0020533,-0.3173088,-0.0116188,-0.0132761,-0.0239822
1.0825000,1.0825000,1.0825000,-0.0114536,-0.0020398,-0.3150517,-0.0114536,-0.0131165,-0.0236160
1.0850000,1.0850000,1.0850000,-0.0112912,-0.0020265,-0.3128161,-0.0112912,-0.0129594,-0.0232560
1.0875000,1.0875000,1.0875000,-0.0111315,-0.0020132,-0.3106018,-0.0111315,-0.0128047,-0.0229022
1.0900000,1.0900000,1.0900000,-0.0109744,-0.0020001,-0.3084085,-0.0109744,-0.0126523,-0.0225543
1.0925000,1.0925000,1.0925000,-0.0108199,-0.0019871,-0.3062360,-0.0108199,-0.0125023,-0.0222124
1.0950000,1.0950000,1.0950000,-0.0106680,-0.0019742,-0.3040839,-0.0106680,-0.0123545,-0.0218763
1.0975000,1.0975000,1.0975000,-0.0105185,-0.0019614,-0.3019521,-0.0105185,-0.0122089,-0.0215459
1.1000000,1.1000000,1.1000000,-0.0103716,-0.0019487,-0.2998404,-0.0103716,-0.0120656,-0.0212210
1.1025000,1.1025000,1.1025000,-0.0102270,-0.0019361,-0.2977484,-0.0102270,-0.0119244,-0.0209016
1.1050000,1.1050000,1.1050000,-0.0100847,-0.0019236,-0.2956760,-0.0100847,-0.0117853,-0.0205876
1.1075000,1.1075000,1.1075000,-0.0099448,-0.0019112,-0.2936229,-0.0099448,-0.0116483,-0.0202788
1.1100000,1.1100000,1.1100000,-0.0098072,-0.0018989,-0.2915889,-0.0098072,-0.0115133,-0.0199752
1.1125000,1.1125000,1.1125000,-0.0096717,-0.0018868,-0.2895738,-0.0096717,-0.0113803,-0.0196766
1.1150000,1.1150000,1.1150000,-0.0095385,-0.0018747,-0.2875774,-0.0095385,-0.0112493,-0.0193830
1.1175000,1.1175000,1.1175000,-0.0094074,-0.0018627,-0.2855994,-0.0094074,-0.0111203,-0.0190943
1.1200000,1.1200000,1.1200000,-0.0092784,-0.0018509,-0.2836396,-0.0092784,-0.0109931,-0.0188104
1.1225000,1.1225000,1.1225000,-0.0091515,-0.0018391,-0.2816978,-0.0091515,-0.0108678,-0.0185312
1.1250000,1.1250000,1.1250000,-0.0090266,-0.0018274,-0.2797738,-0.0090266,-0.0107443,-0.0182566
1.1275000,1.1275000,1.1275000,-0.0089037,-0.0018158,-0.2778675,-0.0089037,-0.0106226,-0.0179865
1.1300000,1.1300000,1.1300000,-0.0087828,-0.0018043,-0.2759785,-0.0087828,-0.0105027,-0.0177208
1.1325000,1.1325000,1.1325000,-0.0086638,-0.0017930,-0.2741067,-0.0086638,-0.0103846,-0.0174595
1.1350000,1.1350000,1.1350000,-0.0085466,-0.0017817,-0.2722520,-0.0085466,-0.0102681,-0.0172025
1.1375000,1.1375000,1.1375000,-0.0084314,-0.0017705,-0.2704140,-0.0084314,-0.0101533,-0.0169497
1.1400000,1.1400000,1.1400000,-0.0083179,-0.0017593,-0.2685927,-0.0083179,-0.0100402,-0.0167010
1.1425000,1.1425000,1.1425000,-0.0082062,-0.0017483,-0.2667877,-0.0082062,-0.0099287,-0.0164563
1.1450000,1.1450000,1.1450000,-0.0080963,-0.0017374,-0.2649991,-0.0080963,-0.0098188,-0.0162156
1.1475000,1.1475000,1.1475000,-0.0079881,-0.0017266,-0.2632265,-0.0079881,-0.0097104,-0.0159789
1.1500000,1.1500000,1.1500000,-0.0078816,-0.0017158,-0.2614697,-0.0078816,-0.0096036,-0.0157459
1.1525000,1.1525000,1.1525000,-0.0077767,-0.0017051,-0.2597287,-0.0077767,-0.0094983,-0.0155167
1.1550000,1.1550000,1.1550000,-0.0076735,-0.0016946,-0.2580032,-0.0076735,-0.0093945,-0.0152912
1.1575000,1.1575000,1.1575000,-0.0075719,-0.0016841,-0.2562930,-0.0075719,-0.0092922,-0.0150693
1.1600000,1.1600000,1.1600000,-0.0074719,-0.0016737,-0.2545981,-0.0074719,-0.0091913,-0.0148510
1.1625000,1.1625000,1.1625000,-0.0073734,-0.0016633,-0.2529181,-0.0073734,-0.0090918,-0.0146361
1.1650000,1.1650000,1.1650000,-0.0072764,-0.0016531,-0.2512530,-0.0072764,-0.0089937,-0.0144247
1.1675000,1.1675000,1.1675000,-0.0071809,-0.0016429,-0.2496025,-0.0071809,-0.0088970,-0.0142167
1.1700000,1.1700000,1.1700000,-0.0070869,-0.0016328,-0.2479666,-0.0070869,-0.0088016,-0.0140120
1.1725000,1.1725000,1.1725000,-0.0069943,-0.0016229,-0.2463450,-0.0069943,-0.0087075,-0.0138105
1.1750000,1.1750000,1.1750000,-0.0069031,-0.0016129,-0.2447376,-0.0069031,-0.0086147,-0.0136122
1.1775000,1.1775000,1.1775000,-0.0068133,-0.0016031,-0.2431443,-0.0068133,-0.0085232,-0.0134170
1.1800000,1.1800000,1.1800000,-0.0067249,-0.0015933,-0.2415648,-0.0067249,-0.0084330,-0.0132250
1.1825000,1.1825000,1.1825000,-0.0066378,-0.0015837,-0.2399991,-0.0066378,-0.0083440,-0.0130359
1.1850000,1.1850000,1.1850000,-0.0065521,-0.0015740,-0.2384470,-0.0065521,-0.0082562,-0.0128499
1.1875000,1.1875000,1.1875000,-0.0064676,-0.0015645,-0.2369083,-0.0064676,-0.0081696,-0.0126667
1.1900000,1.1900000,1.1900000,-0.0063844,-0.0015551,-0.2353829,-0.0063844,-0.0080842,-0.0124864
1.1925000,1.1925000,1.1925000,-0.0063025,-0.0015457,-0.2338707,-0.0063025,-0.0080000,-0.0123089
1.1950000,1.1950000,1.1950000,-0.0062218,-0.0015364,-0.2323714,-0.0062218,-0.0079169,-0.0121342
1.1975000,1.1975000,1.1975000,-0.0061423,-0.0015272,-0.2308850,-0.0061423,-0.0078349,-0.0119623
1.2000000,1.2000000,1.2000000,-0.0060640,-0.0015180,-0.2294114,-0.0060640,-0.0077540,-0.0117929
1.2025000,1.2025000,1.2025000,-0.0059868,-0.0015089,-0.2279503,-0.0059868,-0.0076742,-0.0116263
1.2050000,1.2050000,1.2050000,-0.0059108,-0.0014999,-0.2265017,-0.0059108,-0.0075955,-0.0114622
1.2075000,1.2075000,1.2075000,-0.0058359,-0.0014909,-0.2250654,-0.0058359,-0.0075178,-0.0113006
1.2100000,1.2100000,1.2100000,-0.0057622,-0.0014821,-0.2236413,-0.0057622,-0.0074411,-0.0111415
1.2125000,1.2125000,1.2125000,-0.0056895,-0.0014733,-0.2222292,-0.0056895,-0.0073655,-0.0109849
1.2150000,1.2150000,1.2150000,-0.0056179,-0.0014645,-0.2208291,-0.0056179,-0.0072908,-0.0108307
1.2175000,1.2175000,1.2175000,-0.0055474,-0.0014559,-0.2194408,-0.0055474,-0.0072172,-0.0106788
1.2200000,1.2200000,1.2200000,-0.0054778,-0.0014473,-0.2180642,-0.0054778,-0.0071445,-0.0105293
1.2225000,1.2225000,1.2225000,-0.0054093,-0.0014387,-0.2166991,-0.0054093,-0.0070727,-0.0103820
1.2250000,1.2250000,1.2250000,-0.0053418,-0.0014302,-0.2153455,-0.0053418,-0.0070019,-0.0102370
1.2275000,1.2275000,1.2275000,-0.0052753,-0.0014218,-0.2140032,-0.0052753,-0.0069321,-0.0100942
1.2300000,1.2300000,1.2300000,-0.0052098,-0.0014135,-0.2126721,-0.0052098,-0.0068631,-0.0099536
1.2325000,1.2325000,1.2325000,-0.0051452,-0.0014052,-0.2113520,-0.0051452,-0.0067950,-0.0098151
1.2350000,1.2350000,1.2350000,-0.0050815,-0.0013970,-0.2100429,-0.0050815,-0.0067278,-0.0096787
1.2375000,1.2375000,1.2375000,-0.0050188,-0.0013889,-0.2087447,-0.0050188,-0.0066615,-0.0095444
1.2400000,1.2400000,1.2400000,-0.0049570,-0.0013808,-0.2074572,-0.0049570,-0.0065961,-0.0094120
1.2425000,1.2425000,1.2425000,-0.0048960,-0.0013728,-0.2061804,-0.0048960,-0.0065314,-0.0092817
1.2450000,1.2450000,1.2450000,-0.0048360,-0.0013648,-0.2049140,-0.0048360,-0.0064676,-0.0091534
1.2475000,1.2475000,1.2475000,-0.0047768,-0.0013569,-0.2036581,-0.0047768,-0.0064046,-0.0090269
1.2500000,1.2500000,1.2500000,-0.0047184,-0.0013490,-0.2024124,-0.0047184,-0.0063424,-0.0089024
1.2525000,1.2525000,1.2525000,-0.0046609,-0.0013413,-0.2011770,-0.0046609,-0.0062810,-0.0087797
1.2550000,1.2550000,1.2550000,-0.0046042,-0.0013335,-0.1999516,-0.0046042,-0.0062204,-0.0086589
1.2575000,1.2575000,1.2575000,-0.0045483,-0.0013259,-0.1987362,-0.0045483,-0.0061606,-0.0085398
1.2600000,1.2600000,1.2600000,-0.0044932,-0.0013183,-0.1975307,-0.0044932,-0.0061015,-0.0084225
1.2625000,1.2625000,1.2625000,-0.0044389,-0.0013107,-0.1963350,-0.0044389,-0.0060431,-0.0083070
1.2650000,1.2650000,1.2650000,-0.0043853,-0.0013032,-0.1951490,-0.0043853,-0.0059855,-0.0081932
1.2675000,1.2675000,1.2675000,-0.0043325,-0.0012958,-0.1939726,-0.0043325,-0.0059286,-0.0080810
1.2700000,1.2700000,1.2700000,-0.0042804,-0.0012884,-0.1928056,-0.0042804,-0.0058724,-0.0079705
1.2725000,1.2725000,1.2725000,-0.0042291,-0.0012811,-0.1916480,-0.0042291,-0.0058169,-0.0078617
1.2750000,1.2750000,1.2750000,-0.0041785,-0.0012738,-0.1904998,-0.0041785,-0.0057621,-0.0077544
1.2775000,1.2775000,1.2775000,-0.0041286,-0.0012666,-0.1893607,-0.0041286,-0.0057079,-0.0076488
1.2800000,1.2800000,1.2800000,-0.0040794,-0.0012594,-0.1882307,-0.0040794,-0.0056545,-0.0075446
1.2825000,1.2825000,1.2825000,-0.0040309,-0.0012523,-0.1871098,-0.0040309,-0.0056017,-0.0074420
1.2850000,1.2850000,1.2850000,-0.0039830,-0.0012453,-0.1859978,-0.0039830,-0.0055495,-0.0073409
1.2875000,1.2875000,1.2875000,-0.0039359,-0.0012382,-0.1848946,-0.0039359,-0.0054980,-0.0072413
1.2900000,1.2900000,1.2900000,-0.0038893,-0.0012313,-0.1838002,-0.0038893,-0.0054471,-0.0071431
1.2925000,1.2925000,1.2925000,-0.0038434,-0.0012244,-0.1827145,-0.0038434,-0.0053968,-0.0070463
1.2950000,1.2950000,1.2950000,-0.0037982,-0.0012175,-0.1816373,-0.0037982,-0.0053471,-0.0069510
1.2975000,1.2975000,1.2975000,-0.0037536,-0.0012107,-0.1805686,-0.0037536,-0.0052981,-0.0068570
1.3000000,1.3000000,1.3000000,-0.0037095,-0.0012040,-0.1795084,-0.0037095,-0.0052496,-0.0067644
1.3025000,1.3025000,1.3025000,-0.0036661,-0.0011973,-0.1784564,-0.0036661,-0.0052017,-0.0066732
1.3050000,1.3050000,1.3050000,-0.0036233,-0.0011906,-0.1774127,-0.0036233,-0.0051544,-0.0065832
1.3075000,1.3075000,1.3075000,-0.0035811,-0.0011840,-0.1763772,-0.0035811,-0.0051077,-0.0064945
1.3100000,1.3100000,1.3100000,-0.0035394,-0.0011775,-0.1753497,-0.0035394,-0.0050615,-0.0064072
1.3125000,1.3125000,1.3125000,-0.0034983,-0.0011710,-0.1743303,-0.0034983,-0.0050158,-0.0063210
1.3150000,1.3150000,1.3150000,-0.0034578,-0.0011645,-0.1733188,-0.0034578,-0.0049707,-0.0062361
1.3175000,1.3175000,1.3175000,-0.0034178,-0.0011581,-0.1723151,-0.0034178,-0.0049262,-0.0061525
1.3200000,1.3200000,1.3200000,-0.0033783,-0.0011517,-0.1713192,-0.0033783,-0.0048822,-0.0060700
1.3225000,1.3225000,1.3225000,-0.0033394,-0.0011454,-0.1703310,-0.0033394,-0.0048386,-0.0059887
1.3250000,1.3250000,1.3250000,-0.0033010,-0.0011391,-0.1693504,-0.0033010,-0.0047956,-0.0059085
1.3275000,1.3275000,1.3275000,-0.0032631,-0.0011329,-0.1683774,-0.0032631,-0.0047531,-0.0058295
1.3300000,1.3300000,1.3300000,-0.0032258,-0.0011267,-0.1674119,-0.0032258,-0.0047111,-0.0057516
1.3325000,1.3325000,1.3325000,-0.0031889,-0.0011206,-0.1664537,-0.0031889,-0.0046696,-0.0056748
1.3350000,1.3350000,1.3350000,-0.0031525,-0.0011145,-0.1655029,-0.0031525,-0.0046286,-0.0055991
1.3375000,1.3375000,1.3375000,-0.0031166,-0.0011084,-0.1645593,-0.0031166,-0.0045881,-0.0055245
1.3400000,1.3400000,1.3400000,-0.0030812,-0.0011024,-0.1636230,-0.0030812,-0.0045480,-0.0054509
1.3425000,1.3425000,1.3425000,-0.0030463,-0.0010964,-0.1626937,-0.0030463,-0.0045084,-0.0053784
1.3450000,1.3450000,1.3450000,-0.0030118,-0.0010905,-0.1617716,-0.0030118,-0.0044692,-0.0053068
1.3475000,1.3475000,1.3475000,-0.0029777,-0.0010846,-0.1608564,-0.0029777,-0.0044305,-0.0052363
1.3500000,1.3500000,1.3500000,-0.0029442,-0.0010788,-0.1599481,-0.0029442,-0.0043923,-0.0051668
1.3525000,1.3525000,1.3525000,-0.0029110,-0.0010730,-0.1590467,-0.0029110,-0.0043544,-0.0050982
1.3550000,1.3550000,1.3550000,-0.0028783,-0.0010672,-0.1581521,-0.0028783,-0.0043170,-0.0050306
1.3575000,1.3575000,1.3575000,-0.0028461,-0.0010615,-0.1572642,-0.0028461,-0.0042801,-0.0049640
1.3600000,1.3600000,1.3600000,-0.0028142,-0.0010559,-0.1563830,-0.0028142,-0.0042435,-0.0048982
1.3625000,1.3625000,1.3625000,-0.0027828,-0.0010502,-0.1555083,-0.0027828,-0.0042074,-0.0048334
1.3650000,1.3650000,1.3650000,-0.0027518,-0.0010446,-0.1546402,-0.0027518,-0.0041717,-0.0047695
1.3675000,1.3675000,1.3675000,-0.0027211,-0.0010391,-0.1537786,-0.0027211,-0.0041363,-0.0047065
1.3700000,1.3700000,1.3700000,-0.0026909,-0.0010335,-0.1529234,-0.0026909,-0.0041014,-0.0046443
1.3725000,1.3725000,1.3725000,-0.0026611,-0.0010281,-0.1520746,-0.0026611,-0.0040669,-0.0045830
1.3750000,1.3750000,1.3750000,-0.0026317,-0.0010226,-0.1512321,-0.0026317,-0.0040327,-0.0045226
1.3775000,1.3775000,1.3775000,-0.0026026,-0.0010172,-0.1503958,-0.0026026,-0.0039990,-0.0044630
1.3800000,1.3800000,1.3800000,-0.0025739,-0.0010119,-0.1495657,-0.0025739,-0.0039656,-0.0044042
1.3825000,1.3825000,1.3825000,-0.0025456,-0.0010065,-0.1487417,-0.0025456,-0.0039326,-0.0043462
1.3850000,1.3850000,1.3850000,-0.0025176,-0.0010012,-0.1479238,-0.0025176,-0.0038999,-0.0042890
1.3875000,1.3875000,1.3875000,-0.0024900,-0.0009960,-0.1471119,-0.0024900,-0.0038676,-0.0042326
1.3900000,1.3900000,1.3900000,-0.0024628,-0.0009908,-0.1463059,-0.0024628,-0.0038357,-0.0041769
1.3925000,1.3925000,1.3925000,-0.0024359,-0.0009856,-0.1455059,-0.0024359,-0.0038041,-0.0041221
1.3950000,1.3950000,1.3950000,-0.0024093,-0.0009804,-0.1447117,-0.0024093,-0.0037728,-0.0040679
1.3975000,1.3975000,1.3975000,-0.0023831,-0.0009753,-0.1439233,-0.0023831,-0.0037419,-0.0040145
1.4000000,1.4000000,1.4000000,-0.0023573,-0.0009702,-0.1431406,-0.0023573,-0.0037114,-0.0039619
1.4025000,1.4025000,1.4025000,-0.0023317,-0.0009652,-0.1423637,-0.0023317,-0.0036812,-0.0039099
1.4050000,1.4050000,1.4050000,-0.0023065,-0.0009602,-0.1415923,-0.0023065,-0.0036513,-0.0038587
1.4075000,1.4075000,1.4075000,-0.0022816,-0.0009552,-0.1408266,-0.0022816,-0.0036217,-0.0038081
1.4100000,1.4100000,1.4100000,-0.0022570,-0.0009503,-0.1400664,-0.0022570,-0.0035924,-0.0037583
1.4125000,1.4125000,1.4125000,-0.0022327,-0.0009454,-0.1393116,-0.0022327,-0.0035635,-0.0037091
1.4150000,1.4150000,1.4150000,-0.0022087,-0.0009405,-0.1385623,-0.0022087,-0.0035349,-0.0036606
1.4175000,1.4175000,1.4175000,-0.0021850,-0.0009357,-0.1378184,-0.0021850,-0.0035065,-0.0036127
1.4200000,1.4200000,1.4200000,-0.0021616,-0.0009309,-0.1370799,-0.0021616,-0.0034785,-0.0035654
1.4225000,1.4225000,1.4225000,-0.0021386,-0.0009261,-0.1363466,-0.0021386,-0.0034508,-0.0035189
1.4250000,1.4250000,1.4250000,-0.0021158,-0.0009213,-0.1356185,-0.0021158,-0.0034234,-0.0034729
1.4275000,1.4275000,1.4275000,-0.0020932,-0.0009166,-0.1348957,-0.0020932,-0.0033962,-0.0034275
1.4300000,1.4300000,1.4300000,-0.0020710,-0.0009120,-0.1341780,-0.0020710,-0.0033694,-0.0033828
1.4325000,1.4325000,1.4325000,-0.0020490,-0.0009073,-0.1334654,-0.0020490,-0.0033428,-0.0033386
1.4350000,1.4350000,1.4350000,-0.0020273,-0.0009027,-0.1327579,-0.0020273,-0.0033165,-0.0032951
1.4375000,1.4375000,1.4375000,-0.0020059,-0.0008981,-0.1320554,-0.0020059,-0.0032905,-0.0032521
1.4400000,1.4400000,1.4400000,-0.0019848,-0.0008936,-0.1313578,-0.0019848,-0.0032648,-0.0032097
1.4425000,1.4425000,1.4425000,-0.0019639,-0.0008890,-0.1306652,-0.0019639,-0.0032393,-0.0031678
1.4450000,1.4450000,1.4450000,-0.0019432,-0.0008846,-0.1299775,-0.0019432,-0.0032141,-0.0031266
1.4475000,1.4475000,1.4475000,-0.0019228,-0.0008801,-0.1292946,-0.0019228,-0.0031892,-0.0030858
1.4500000,1.4500000,1.4500000,-0.0019027,-0.0008757,-0.1286164,-0.0019027,-0.0031645,-0.0030456
1.4525000,1.4525000,1.4525000,-0.0018828,-0.0008713,-0.1279431,-0.0018828,-0.0031401,-0.0030060
1.4550000,1.4550000,1.4550000,-0.0018632,-0.0008669,-0.1272744,-0.0018632,-0.0031159,-0.0029668
1.4575000,1.4575000,1.4575000,-0.0018437,-0.0008625,-0.1266105,-0.0018437,-0.0030920,-0.0029282
1.4600000,1.4600000,1.4600000,-0.0018246,-0.0008582,-0.1259511,-0.0018246,-0.0030684,-0.0028901
1.4625000,1.4625000,1.4625000,-0.0018056,-0.0008539,-0.1252963,-0.0018056,-0.0030449,-0.0028524
1.4650000,1.4650000,1.4650000,-0.0017869,-0.0008497,-0.1246461,-0.0017869,-0.0030217,-0.0028153
1.4675000,1.4675000,1.4675000,-0.0017684,-0.0008455,-0.1240004,-0.0017684,-0.0029988,-0.0027787
1.4700000,1.4700000,1.4700000,-0.0017502,-0.0008412,-0.1233592,-0.0017502,-0.0029761,-0.0027425
1.4725000,1.4725000,1.4725000,-0.0017321,-0.0008371,-0.1227224,-0.0017321,-0.0029536,-0.0027068
1.4750000,1.4750000,1.4750000,-0.0017143,-0.0008329,-0.1220900,-0.0017143,-0.0029313,-0.0026716
1.4775000,1.4775000,1.4775000,-0.0016967,-0.0008288,-0.1214619,-0.0016967,-0.0029093,-0.0026369
1.4800000,1.4800000,1.4800000,-0.0016793,-0.0008247,-0.1208382,-0.0016793,-0.0028875,-0.0026026
1.4825000,1.4825000,1.4825000,-0.0016621,-0.0008206,-0.1202187,-0.0016621,-0.0028659,-0.0025687
1.4850000,1.4850000,1.4850000,-0.0016451,-0.0008166,-0.1196035,-0.0016451,-0.0028445,-0.0025353
1.4875000,1.4875000,1.4875000,-0.0016283,-0.0008126,-0.1189925,-0.0016283,-0.0028234,-0.0025023
1.4900000,1.4900000,1.4900000,-0.0016118,-0.0008086,-0.1183857,-0.0016118,-0.0028024,-0.0024698
1.4925000,1.4925000,1.4925000,-0.0015954,-0.0008046,-0.1177829,-0.0015954,-0.0027817,-0.0024376
1.4950000,1.4950000,1.4950000,-0.0015792,-0.0008007,-0.1171843,-0.0015792,-0.0027612,-0.0024059
1.4975000,1.4975000,1.4975000,-0.0015632,-0.0007968,-0.1165898,-0.0015632,-0.0027408,-0.0023746
1.5000000,1.5000000,1.5000000,-0.0015474,-0.0007929,-0.1159993,-0.0015474,-0.0027207,-0.0023437
1.5025000,1.5025000,1.5025000,-0.0015318,-0.0007890,-0.1154128,-0.0015318,-0.0027008,-0.0023132
1.5050000,1.5050000,1.5050000,-0.0015163,-0.0007852,-0.1148302,-0.0015163,-0.0026811,-0.0022831
1.5075000,1.5075000,1.5075000,-0.0015011,-0.0007814,-0.1142516,-0.0015011,-0.0026615,-0.0022534
1.5100000,1.5100000,1.5100000,-0.0014860,-0.0007776,-0.1136769,-0.0014860,-0.0026422,-0.0022240
1.5125000,1.5125000,1.5125000,-0.0014711,-0.0007739,-0.1131060,-0.0014711,-0.0026230,-0.0021951
1.5150000,1.5150000,1.5150000,-0.0014564,-0.0007701,-0.1125390,-0.0014564,-0.0026041,-0.0021665
1.5175000,1.5175000,1.5175000,-0.0014418,-0.0007664,-0.1119757,-0.0014418,-0.0025853,-0.0021383
1.5200000,1.5200000,1.5200000,-0.0014274,-0.0007627,-0.1114163,-0.0014274,-0.0025667,-0.0021104
1.5225000,1.5225000,1.5225000,-0.0014132,-0.0007590,-0.1108605,-0.0014132,-0.0025483,-0.0020829
1.5250000,1.5250000,1.5250000,-0.0013991,-0.0007554,-0.1103085,-0.0013991,-0.0025300,-0.0020557
1.5275000,1.5275000,1.5275000,-0.0013853,-0.0007518,-0.1097601,-0.0013853,-0.0025120,-0.0020289
1.5300000,1.5300000,1.5300000,-0.0013715,-0.0007482,-0.1092154,-0.0013715,-0.0024941,-0.0020024
1.5325000,1.5325000,1.5325000,-0.0013580,-0.0007446,-0.1086743,-0.0013580,-0.0024764,-0.0019763
1.5350000,1.5350000,1.5350000,-0.0013446,-0.0007410,-0.1081368,-0.0013446,-0.0024588,-0.0019505
1.5375000,1.5375000,1.5375000,-0.0013313,-0.0007375,-0.1076028,-0.0013313,-0.0024414,-0.0019250
1.5400000,1.5400000,1.5400000,-0.0013182,-0.0007340,-0.1070723,-0.0013182,-0.0024242,-0.0018999
1.5425000,1.5425000,1.5425000,-0.0013052,-0.0007305,-0.1065454,-0.0013052,-0.0024072,-0.0018751
1.5450000,1.5450000,1.5450000,-0.0012924,-0.0007271,-0.1060219,-0.0012924,-0.0023903,-0.0018505
1.5475000,1.5475000,1.5475000,-0.0012798,-0.0007236,-0.1055018,-0.0012798,-0.0023736,-0.0018263
1.5500000,1.5500000,1.5500000,-0.0012673,-0.0007202,-0.1049852,-0.0012673,-0.0023570,-0.0018024
1.5525000,1.5525000,1.5525000,-0.0012549,-0.0007168,-0.1044719,-0.0012549,-0.0023406,-0.0017788
1.5550000,1.5550000,1.5550000,-0.0012427,-0.0007134,-0.1039620,-0.0012427,-0.0023243,-0.0017555
1.5575000,1.5575000,1.5575000,-0.0012306,-0.0007101,-0.1034554,-0.0012306,-0.0023082,-0.0017325
1.5600000,1.5600000,1.5600000,-0.0012186,-0.0007067,-0.1029521,-0.0012186,-0.0022923,-0.0017098
1.5625000,1.5625000,1.5625000,-0.0012068,-0.0007034,-0.1024521,-0.0012068,-0.0022765,-0.0016874
1.5650000,1.5650000,1.5650000,-0.0011951,-0.0007001,-0.1019553,-0.0011951,-0.0022608,-0.0016652
1.5675000,1.5675000,1.5675000,-0.0011836,-0.0006968,-0.1014617,-0.0011836,-0.0022453,-0.0016434
1.5700000,1.5700000,1.5700000,-0.0011721,-0.0006936,-0.1009713,-0.0011721,-0.0022299,-0.0016218
1.5725000,1.5725000,1.5725000,-0.0011608,-0.0006904,-0.1004841,-0.0011608,-0.0022147,-0.0016004
1.5750000,1.5750000,1.5750000,-0.0011497,-0.0006871,-0.1000001,-0.0011497,-0.0021996,-0.0015794
1.5775000,1.5775000,1.5775000,-0.0011386,-0.0006839,-0.0995191,-0.0011386,-0.0021847,-0.0015586
1.5800000,1.5800000,1.5800000,-0.0011277,-0.0006808,-0.0990412,-0.0011277,-0.0021699,-0.0015380
1.5825000,1.5825000,1.5825000,-0.0011169,-0.0006776,-0.0985664,-0.0011169,-0.0021552,-0.0015177
1.5850000,1.5850000,1.5850000,-0.0011062,-0.0006745,-0.0980947,-0.0011062,-0.0021407,-0.0014977
1.5875000,1.5875000,1.5875000,-0.0010957,-0.0006714,-0.0976259,-0.0010957,-0.0021263,-0.0014779
1.5900000,1.5900000,1.5900000,-0.0010853,-0.0006683,-0.0971602,-0.0010853,-0.0021120,-0.0014584
1.5925000,1.5925000,1.5925000,-0.0010749,-0.0006652,-0.0966974,-0.0010749,-0.0020979,-0.0014391
1.5950000,1.5950000,1.5950000,-0.0010647,-0.0006621,-0.0962376,-0.0010647,-0.0020839,-0.0014200
1.5975000,1.5975000,1.5975000,-0.0010546,-0.0006591,-0.0957806,-0.0010546,-0.0020700,-0.0014012
