# r[nm],d[nm],daligned[nm],U(d)[kj/mol],V(d)[e/nm],Uslab(d)[kJ/mol],UC(d)[kJ/mol],UK(d)[kJ/mol],UCl(d)[kJ/mol]
0.1825000,0.1825000,0.1825000,1642.6845114,0.2822613,173.1147210,1642.6845114,1011.1597533,inf
0.1850000,0.1850000,0.1850000,1451.6431763,0.2904716,149.7131790,1451.6431763,892.8684564,inf
0.1875000,0.1875000,0.1875000,1283.5669580,0.2977747,129.7201407,1283.5669580,788.9529836,inf
0.1900000,0.1900000,0.1900000,1135.5920366,0.3042287,112.6580967,1135.5920366,697.5978773,inf
0.1925000,0.1925000,0.1925000,1005.2315952,0.3098893,98.0848682,1005.2315952,617.2297725,inf
0.1950000,0.1950000,0.1950000,890.3220456,0.3148095,85.6150506,890.3220456,546.4825678,inf
0.1975000,0.1975000,0.1975000,788.9777662,0.3190400,74.9215467,788.9777662,484.1681038,inf
0.2000000,0.2000000,0.2000000,699.5528540,0.3226290,65.7295391,699.5528540,429.2513920,inf
0.2025000,0.2025000,0.2025000,620.6086785,0.3256221,57.8087520,620.6086785,380.8296131,inf
0.2050000,0.2050000,0.2050000,550.8862530,0.3280626,50.9661121,550.8862530,338.1142519,inf
0.2075000,0.2075000,0.2075000,489.2826217,0.3299913,45.0394345,489.2826217,300.4158495,inf
0.2100000,0.2100000,0.2100000,434.8306102,0.3314467,39.8922154,434.8306102,267.1309502,inf
0.2125000,0.2125000,0.2125000,386.6814039,0.3324653,35.4094042,386.6814039,237.7308929,1768.4315998
0.2150000,0.2150000,0.2150000,344.0895162,0.3330812,31.4939358,344.0895162,211.7521608,1572.9157488
0.2175000,0.2175000,0.2175000,306.3997827,0.3333265,28.0637811,306.3997827,188.7880514,1399.5937770
0.2200000,0.2200000,0.2200000,273.0360816,0.3332310,25.0493126,273.0360816,168.4814626,1245.8934412
0.2225000,0.2225000,0.2225000,243.4915289,0.3328213,22.3908826,243.4915289,150.5186125,1109.5083662
0.2250000,0.2250000,0.2250000,217.3199311,0.3321158,20.0366654,217.3199311,134.6235057,988.3426179
0.2275000,0.2275000,0.2275000,194.1283015,0.3311110,17.9409908,194.1283015,120.5529320,880.5652931
0.2300000,0.2300000,0.2300000,173.5702391,0.3297497,16.0634488,173.5702391,108.0917889,784.7000638
0.2325000,0.2325000,0.2325000,155.3399417,0.3278636,14.3688761,155.3399417,97.0486318,699.5263861
0.2350000,0.2350000,0.2350000,139.1666484,0.3250902,12.8279602,139.1666484,87.2516249,623.9259851
0.2375000,0.2375000,0.2375000,124.8094905,0.3207909,11.4178552,124.8094905,78.5453874,556.8439897
0.2400000,0.2400000,0.2400000,112.0530349,0.3140225,10.1221646,112.0530349,70.7894676,497.3013735
0.2425000,0.2425000,0.2425000,100.7039840,0.3036312,8.9300026,100.7039840,63.8589789,444.3920108
0.2450000,0.2450000,0.2450000,90.5894368,0.2885326,7.8343672,90.5894368,57.6468655,397.2674792
0.2475000,0.2475000,0.2475000,81.5567678,0.2681625,6.8303693,81.5567678,52.0657483,355.1617133
0.2500000,0.2500000,0.2500000,73.4744298,0.2429126,5.9138029,73.4744298,47.0470252,317.4684388
0.2525000,0.2525000,0.2525000,66.2321433,0.2142189,5.0802703,66.2321433,42.5367820,283.7557131
0.2550000,0.2550000,0.2550000,59.7390374,0.1841465,4.3248194,59.7390374,38.4903560,253.6746028
0.2575000,0.2575000,0.2575000,53.9197009,0.1547149,3.6419343,53.9197009,34.8678119,226.8850604
0.2600000,0.2600000,0.2600000,48.7095320,0.1273825,3.0257192,48.7095320,31.6313379,203.0471187
0.2625000,0.2625000,0.2625000,44.0509227,0.1028924,2.4701582,44.0509227,28.7443113,181.8365460
0.2650000,0.2650000,0.2650000,39.8909207,0.0813914,1.9693733,39.8909207,26.1713268,162.9571785
0.2675000,0.2675000,0.2675000,36.1801587,0.0626427,1.5178271,36.1801587,23.8785955,146.1453283
0.2700000,0.2700000,0.2700000,32.8725285,0.0462158,1.1104430,32.8725285,21.8343795,131.1687405
0.2725000,0.2725000,0.2725000,29.9251672,0.0316195,0.7426412,29.9251672,20.0093211,117.8230592
0.2750000,0.2750000,0.2750000,27.2985061,0.0183846,0.4103215,27.2985061,18.3766288,105.9278315
0.2775000,0.2775000,0.2775000,24.9562792,0.0061109,0.1098266,24.9562792,16.9121256,95.3230282
0.2800000,0.2800000,0.2800000,22.8654666,-0.0055070,-0.1620854,22.8654666,15.5941674,85.8663085
0.2825000,0.2825000,0.2825000,20.9961815,-0.0166709,-0.4082570,20.9961815,14.4034379,77.4308975
0.2850000,0.2850000,0.2850000,19.3215127,-0.0274827,-0.6311472,19.3215127,13.3226373,69.9038758
0.2875000,0.2875000,0.2875000,17.8173311,-0.0379585,-0.8328636,17.8173311,12.3361258,63.1847191
0.2900000,0.2900000,0.2900000,16.4620483,-0.0480502,-1.0152310,16.4620483,11.4296421,57.1839971
0.2925000,0.2925000,0.2925000,15.2363187,-0.0576724,-1.1799046,15.2363187,10.5902340,51.8221898
0.2950000,0.2950000,0.2950000,14.1226969,-0.0667285,-1.3285203,14.1226969,9.8064651,47.0286057
0.2975000,0.2975000,0.2975000,13.1053085,-0.0751318,-1.4628329,13.1053085,9.0688179,42.7404023
0.3000000,0.3000000,0.3000000,12.1696410,-0.0828162,-1.5847768,12.1696410,8.3700926,38.9017017
0.3025000,0.3025000,0.3025000,11.3025522,-0.0897358,-1.6964051,11.3025522,7.7055803,35.4627984
0.3050000,0.3050000,0.3050000,10.4925168,-0.0958589,-1.7997278,10.4925168,7.0728894,32.3794493
0.3075000,0.3075000,0.3075000,9.7300111,-0.1011615,-1.8965168,9.7300111,6.4714555,29.6122432
0.3100000,0.3100000,0.3100000,9.0078486,-0.1056258,-1.9881509,9.0078486,5.9018800,27.1260473
0.3125000,0.3125000,0.3125000,8.3212854,-0.1092449,-2.0755490,8.3212854,5.3652662,24.8895261
0.3150000,0.3150000,0.3150000,7.6678083,-0.1120301,-2.1591902,7.6678083,4.8626846,22.8747221
0.3175000,0.3175000,0.3175000,7.0466495,-0.1140160,-2.2391975,7.0466495,4.3948218,21.0566756
0.3200000,0.3200000,0.3200000,6.4581581,-0.1152610,-2.3154462,6.4581581,3.9618114,19.4130568
0.3225000,0.3225000,0.3225000,5.9031811,-0.1158422,-2.3876716,5.9031811,3.5632056,17.9237918
0.3250000,0.3250000,0.3250000,5.3825642,-0.1158472,-2.4555550,5.3825642,3.1980390,16.5706834
0.3275000,0.3275000,0.3275000,4.8968222,-0.1153649,-2.5187870,4.8968222,2.8649357,15.3370692
0.3300000,0.3300000,0.3300000,4.4459761,-0.1144792,-2.5771056,4.4459761,2.5622281,14.2075773
0.3325000,0.3325000,0.3325000,4.0295207,-0.1132641,-2.6303171,4.0295207,2.2880639,13.1680441
0.3350000,0.3350000,0.3350000,3.6464780,-0.1117829,-2.6783037,3.6464780,2.0404919,12.2056163
0.3375000,0.3375000,0.3375000,3.2954934,-0.1100880,-2.7210247,3.2954934,1.8175248,11.3089962
0.3400000,0.3400000,0.3400000,2.9749438,-0.1082227,-2.7585148,2.9749438,1.6171805,10.4687297
0.3425000,0.3425000,0.3425000,2.6830359,-0.1062227,-2.7908794,2.6830359,1.4375086,9.6774121
0.3450000,0.3450000,0.3450000,2.4178853,-0.1041168,-2.8182864,2.4178853,1.2766059,8.9297115
0.3475000,0.3475000,0.3475000,2.1775738,-0.1019281,-2.8409526,2.1775738,1.1326212,8.2221741
0.3500000,0.3500000,0.3500000,1.9601874,-0.0996741,-2.8591253,1.9601874,1.0037490,7.5528502
0.3525000,0.3525000,0.3525000,1.7638391,-0.0973668,-2.8730617,1.7638391,0.8882109,6.9208257
0.3550000,0.3550000,0.3550000,1.5866819,-0.0950132,-2.8830099,1.5866819,0.7842328,6.3257557
0.3575000,0.3575000,0.3575000,1.4269116,-0.0926157,-2.8891955,1.4269116,0.6900349,5.7674739
0.3600000,0.3600000,0.3600000,1.2827606,-0.0901734,-2.8918168,1.2827606,0.6038532,5.2457159
0.3625000,0.3625000,0.3625000,1.1524824,-0.0876834,-2.8910457,1.1524824,0.5239994,4.7599594
0.3650000,0.3650000,0.3650000,1.0343339,-0.0851416,-2.8870350,1.0343339,0.4489501,4.3093641
0.3675000,0.3675000,0.3675000,0.9265706,-0.0825446,-2.8799273,0.9265706,0.3774362,3.8927808
0.3700000,0.3700000,0.3700000,0.8274681,-0.0798912,-2.8698638,0.8274681,0.3085080,3.5088015
0.3725000,0.3725000,0.3725000,0.7353755,-0.0771835,-2.8569913,0.7353755,0.2415540,3.1558273
0.3750000,0.3750000,0.3750000,0.6487923,-0.0744282,-2.8414663,0.6487923,0.1762759,2.8321352
0.3775000,0.3775000,0.3775000,0.5664469,-0.0716365,-2.8234563,0.5664469,0.1126284,2.5359361
0.3800000,0.3800000,0.3800000,0.4873547,-0.0688234,-2.8031390,0.4873547,0.0507439,2.2654187
0.3825000,0.3825000,0.3825000,0.4108403,-0.0660057,-2.7807004,0.4108403,-0.0091451,2.0187799
0.3850000,0.3850000,0.3850000,0.3365207,-0.0632000,-2.7563313,0.3365207,-0.0667729,1.7942433
0.3875000,0.3875000,0.3875000,0.2642586,-0.0604212,-2.7302240,0.2642586,-0.1218915,1.5900666
0.3900000,0.3900000,0.3900000,0.1940979,-0.0576816,-2.7025693,0.1940979,-0.1743016,1.4045413
0.3925000,0.3925000,0.3925000,0.1261961,-0.0549899,-2.6735532,0.1261961,-0.2238641,1.2359845
0.3950000,0.3950000,0.3950000,0.0607619,-0.0523524,-2.6433548,0.0607619,-0.2704960,1.0827264
0.3975000,0.3975000,0.3975000,-0.0019940,-0.0497726,-2.6121443,-0.0019940,-0.3141561,0.9431003
0.4000000,0.4000000,0.4000000,-0.0618905,-0.0472523,-2.5800819,-0.0618905,-0.3548296,0.8154440
0.4025000,0.4025000,0.4025000,-0.1187918,-0.0447922,-2.5473167,-0.1187918,-0.3925163,0.6981185
0.4050000,0.4050000,0.4050000,-0.1726074,-0.0423932,-2.5139867,-0.1726074,-0.4272256,0.5895466
0.4075000,0.4075000,0.4075000,-0.2232835,-0.0400563,-2.4802183,-0.2232835,-0.4589769,0.4882653
0.4100000,0.4100000,0.4100000,-0.2707918,-0.0377843,-2.4461267,-0.2707918,-0.4878038,0.3929811
0.4125000,0.4125000,0.4125000,-0.3151202,-0.0355811,-2.4118163,-0.3151202,-0.5137588,0.3026153
0.4150000,0.4150000,0.4150000,-0.3562683,-0.0334520,-2.3773811,-0.3562683,-0.5369163,0.2163297
0.4175000,0.4175000,0.4175000,-0.3942477,-0.0314030,-2.3429052,-0.3942477,-0.5573726,0.1335279
0.4200000,0.4200000,0.4200000,-0.4290853,-0.0294401,-2.3084638,-0.4290853,-0.5752414,0.0538352
0.4225000,0.4225000,0.4225000,-0.4608267,-0.0275689,-2.2741235,-0.4608267,-0.5906476,-0.0229388
0.4250000,0.4250000,0.4250000,-0.4895397,-0.0257932,-2.2399431,-0.4895397,-0.6037195,-0.0968471
0.4275000,0.4275000,0.4275000,-0.5153134,-0.0241157,-2.2059742,-0.5153134,-0.6145828,-0.1678523
0.4300000,0.4300000,0.4300000,-0.5382548,-0.0225371,-2.1722622,-0.5382548,-0.6233561,-0.2358693
0.4325000,0.4325000,0.4325000,-0.5584834,-0.0210569,-2.1388462,-0.5584834,-0.6301505,-0.3007984
0.4350000,0.4350000,0.4350000,-0.5761242,-0.0196737,-2.1057603,-0.5761242,-0.6350701,-0.3625464
0.4375000,0.4375000,0.4375000,-0.5913020,-0.0183851,-2.0730336,-0.5913020,-0.6382153,-0.4210382
0.4400000,0.4400000,0.4400000,-0.6041376,-0.0171886,-2.0406908,-0.6041376,-0.6396852,-0.4762199
0.4425000,0.4425000,0.4425000,-0.6147463,-0.0160813,-2.0087530,-0.6147463,-0.6395804,-0.5280578
0.4450000,0.4450000,0.4450000,-0.6232382,-0.0150601,-1.9772376,-0.6232382,-0.6380045,-0.5765351
0.4475000,0.4475000,0.4475000,-0.6297207,-0.0141218,-1.9461589,-0.6297207,-0.6350647,-0.6216504
0.4500000,0.4500000,0.4500000,-0.6343002,-0.0132629,-1.9155285,-0.6343002,-0.6308710,-0.6634165
0.4525000,0.4525000,0.4525000,-0.6370846,-0.0124797,-1.8853556,-0.6370846,-0.6255359,-0.7018610
0.4550000,0.4550000,0.4550000,-0.6381847,-0.0117681,-1.8556471,-0.6381847,-0.6191723,-0.7370272
0.4575000,0.4575000,0.4575000,-0.6377143,-0.0111239,-1.8264080,-0.6377143,-0.6118920,-0.7689749
0.4600000,0.4600000,0.4600000,-0.6357907,-0.0105425,-1.7976417,-0.6357907,-0.6038045,-0.7977792
0.4625000,0.4625000,0.4625000,-0.6325329,-0.0100195,-1.7693500,-0.6325329,-0.5950150,-0.8235286
0.4650000,0.4650000,0.4650000,-0.6280610,-0.0095501,-1.7415332,-0.6280610,-0.5856239,-0.8463217
0.4675000,0.4675000,0.4675000,-0.6224943,-0.0091298,-1.7141909,-0.6224943,-0.5757254,-0.8662633
0.4700000,0.4700000,0.4700000,-0.6159500,-0.0087540,-1.6873211,-0.6159500,-0.5654071,-0.8834611
0.4725000,0.4725000,0.4725000,-0.6085416,-0.0084185,-1.6609214,-0.6085416,-0.5547500,-0.8980233
0.4750000,0.4750000,0.4750000,-0.6003777,-0.0081190,-1.6349884,-0.6003777,-0.5438277,-0.9100576
0.4775000,0.4775000,0.4775000,-0.5915614,-0.0078518,-1.6095180,-0.5915614,-0.5327072,-0.9196708
0.4800000,0.4800000,0.4800000,-0.5821891,-0.0076133,-1.5845057,-0.5821891,-0.5214485,-0.9269700
0.4825000,0.4825000,0.4825000,-0.5723506,-0.0074002,-1.5599463,-0.5723506,-0.5101053,-0.9320636
0.4850000,0.4850000,0.4850000,-0.5621285,-0.0072095,-1.5358344,-0.5621285,-0.4987251,-0.9350625
0.4875000,0.4875000,0.4875000,-0.5515984,-0.0070385,-1.5121640,-0.5515984,-0.4873499,-0.9360807
0.4900000,0.4900000,0.4900000,-0.5408289,-0.0068848,-1.4889289,-0.5408289,-0.4760162,-0.9352362
0.4925000,0.4925000,0.4925000,-0.5298817,-0.0067461,-1.4661228,-0.5298817,-0.4647560,-0.9326503
0.4950000,0.4950000,0.4950000,-0.5188124,-0.0066205,-1.4437391,-0.5188124,-0.4535968,-0.9284469
0.4975000,0.4975000,0.4975000,-0.5076702,-0.0065063,-1.4217708,-0.5076702,-0.4425620,-0.9227522
0.5000000,0.5000000,0.5000000,-0.4964990,-0.0064019,-1.4002113,-0.4964990,-0.4316718,-0.9156924
0.5025000,0.5025000,0.5025000,-0.4853373,-0.0063061,-1.3790535,-0.4853373,-0.4209429,-0.9073931
0.5050000,0.5050000,0.5050000,-0.4742187,-0.0062175,-1.3582902,-0.4742187,-0.4103893,-0.8979780
0.5075000,0.5075000,0.5075000,-0.4631727,-0.0061353,-1.3379146,-0.4631727,-0.4000225,-0.8875672
0.5100000,0.5100000,0.5100000,-0.4522246,-0.0060585,-1.3179194,-0.4522246,-0.3898517,-0.8762763
0.5125000,0.5125000,0.5125000,-0.4413963,-0.0059864,-1.2982975,-0.4413963,-0.3798842,-0.8642158
0.5150000,0.5150000,0.5150000,-0.4307062,-0.0059182,-1.2790420,-0.4307062,-0.3701255,-0.8514903
0.5175000,0.5175000,0.5175000,-0.4201702,-0.0058533,-1.2601457,-0.4201702,-0.3605797,-0.8381979
0.5200000,0.5200000,0.5200000,-0.4098013,-0.0057914,-1.2416017,-0.4098013,-0.3512495,-0.8244300
0.5225000,0.5225000,0.5225000,-0.3996103,-0.0057318,-1.2234030,-0.3996103,-0.3421363,-0.8102711
0.5250000,0.5250000,0.5250000,-0.3896060,-0.0056744,-1.2055428,-0.3896060,-0.3332409,-0.7957992
0.5275000,0.5275000,0.5275000,-0.3797953,-0.0056186,-1.1880144,-0.3797953,-0.3245629,-0.7810854
0.5300000,0.5300000,0.5300000,-0.3701837,-0.0055644,-1.1708109,-0.3701837,-0.3161012,-0.7661944
0.5325000,0.5325000,0.5325000,-0.3607752,-0.0055114,-1.1539259,-0.3607752,-0.3078542,-0.7511845
0.5350000,0.5350000,0.5350000,-0.3515724,-0.0054594,-1.1373528,-0.3515724,-0.2998197,-0.7361086
0.5375000,0.5375000,0.5375000,-0.3425772,-0.0054084,-1.1210852,-0.3425772,-0.2919951,-0.7210135
0.5400000,0.5400000,0.5400000,-0.3337901,-0.0053581,-1.1051168,-0.3337901,-0.2843772,-0.7059414
0.5425000,0.5425000,0.5425000,-0.3252113,-0.0053084,-1.0894414,-0.3252113,-0.2769628,-0.6909293
0.5450000,0.5450000,0.5450000,-0.3168400,-0.0052593,-1.0740529,-0.3168400,-0.2697482,-0.6760100
0.5475000,0.5475000,0.5475000,-0.3086748,-0.0052107,-1.0589453,-0.3086748,-0.2627297,-0.6612122
0.5500000,0.5500000,0.5500000,-0.3007138,-0.0051624,-1.0441128,-0.3007138,-0.2559031,-0.6465608
0.5525000,0.5525000,0.5525000,-0.2929547,-0.0051146,-1.0295497,-0.2929547,-0.2492645,-0.6320777
0.5550000,0.5550000,0.5550000,-0.2853950,-0.0050670,-1.0152502,-0.2853950,-0.2428096,-0.6177812
0.5575000,0.5575000,0.5575000,-0.2780315,-0.0050197,-1.0012088,-0.2780315,-0.2365341,-0.6036873
0.5600000,0.5600000,0.5600000,-0.2708610,-0.0049727,-0.9874201,-0.2708610,-0.2304338,-0.5898092
0.5625000,0.5625000,0.5625000,-0.2638802,-0.0049259,-0.9738788,-0.2638802,-0.2245042,-0.5761581
0.5650000,0.5650000,0.5650000,-0.2570853,-0.0048793,-0.9605798,-0.2570853,-0.2187411,-0.5627431
0.5675000,0.5675000,0.5675000,-0.2504727,-0.0048330,-0.9475178,-0.2504727,-0.2131402,-0.5495714
0.5700000,0.5700000,0.5700000,-0.2440384,-0.0047869,-0.9346880,-0.2440384,-0.2076972,-0.5366488
0.5725000,0.5725000,0.5725000,-0.2377785,-0.0047410,-0.9220854,-0.2377785,-0.2024078,-0.5239795
0.5750000,0.5750000,0.5750000,-0.2316890,-0.0046953,-0.9097053,-0.2316890,-0.1972679,-0.5115666
0.5775000,0.5775000,0.5775000,-0.2257660,-0.0046498,-0.8975430,-0.2257660,-0.1922733,-0.4994120
0.5800000,0.5800000,0.5800000,-0.2200054,-0.0046046,-0.8855940,-0.2200054,-0.1874200,-0.4875166
0.5825000,0.5825000,0.5825000,-0.2144032,-0.0045596,-0.8738538,-0.2144032,-0.1827040,-0.4758804
0.5850000,0.5850000,0.5850000,-0.2089553,-0.0045148,-0.8623179,-0.2089553,-0.1781213,-0.4645029
0.5875000,0.5875000,0.5875000,-0.2036578,-0.0044703,-0.8509823,-0.2036578,-0.1736681,-0.4533826
0.5900000,0.5900000,0.5900000,-0.1985067,-0.0044261,-0.8398426,-0.1985067,-0.1693408,-0.4425176
0.5925000,0.5925000,0.5925000,-0.1934982,-0.0043821,-0.8288949,-0.1934982,-0.1651355,-0.4319056
0.5950000,0.5950000,0.5950000,-0.1886285,-0.0043384,-0.8181351,-0.1886285,-0.1610488,-0.4215436
0.5975000,0.5975000,0.5975000,-0.1838937,-0.0042949,-0.8075593,-0.1838937,-0.1570772,-0.4114285
0.6000000,0.6000000,0.6000000,-0.1792901,-0.0042518,-0.7971638,-0.1792901,-0.1532172,-0.4015568
0.6025000,0.6025000,0.6025000,-0.1748141,-0.0042089,-0.7869448,-0.1748141,-0.1494656,-0.3919246
0.6050000,0.6050000,0.6050000,-0.1704621,-0.0041664,-0.7768987,-0.1704621,-0.1458191,-0.3825281
0.6075000,0.6075000,0.6075000,-0.1662307,-0.0041242,-0.7670220,-0.1662307,-0.1422746,-0.3733631
0.6100000,0.6100000,0.6100000,-0.1621164,-0.0040823,-0.7573111,-0.1621164,-0.1388290,-0.3644252
0.6125000,0.6125000,0.6125000,-0.1581159,-0.0040407,-0.7477627,-0.1581159,-0.1354794,-0.3557100
0.6150000,0.6150000,0.6150000,-0.1542258,-0.0039994,-0.7383734,-0.1542258,-0.1322229,-0.3472131
0.6175000,0.6175000,0.6175000,-0.1504431,-0.0039585,-0.7291402,-0.1504431,-0.1290568,-0.3389298
0.6200000,0.6200000,0.6200000,-0.1467647,-0.0039180,-0.7200597,-0.1467647,-0.1259781,-0.3308557
0.6225000,0.6225000,0.6225000,-0.1431874,-0.0038778,-0.7111288,-0.1431874,-0.1229845,-0.3229860
0.6250000,0.6250000,0.6250000,-0.1397085,-0.0038379,-0.7023447,-0.1397085,-0.1200732,-0.3153162
0.6275000,0.6275000,0.6275000,-0.1363249,-0.0037984,-0.6937043,-0.1363249,-0.1172419,-0.3078417
0.6300000,0.6300000,0.6300000,-0.1330340,-0.0037593,-0.6852048,-0.1330340,-0.1144881,-0.3005578
0.6325000,0.6325000,0.6325000,-0.1298329,-0.0037205,-0.6768432,-0.1298329,-0.1118095,-0.2934600
0.6350000,0.6350000,0.6350000,-0.1267192,-0.0036821,-0.6686170,-0.1267192,-0.1092038,-0.2865439
0.6375000,0.6375000,0.6375000,-0.1236902,-0.0036440,-0.6605234,-0.1236902,-0.1066688,-0.2798049
0.6400000,0.6400000,0.6400000,-0.1207434,-0.0036064,-0.6525597,-0.1207434,-0.1042024,-0.2732386
0.6425000,0.6425000,0.6425000,-0.1178764,-0.0035691,-0.6447234,-0.1178764,-0.1018027,-0.2668408
0.6450000,0.6450000,0.6450000,-0.1150870,-0.0035322,-0.6370121,-0.1150870,-0.0994674,-0.2606071
0.6475000,0.6475000,0.6475000,-0.1123727,-0.0034957,-0.6294232,-0.1123727,-0.0971949,-0.2545334
0.6500000,0.6500000,0.6500000,-0.1097315,-0.0034595,-0.6219543,-0.1097315,-0.0949831,-0.2486155
0.6525000,0.6525000,0.6525000,-0.1071611,-0.0034237,-0.6146032,-0.1071611,-0.0928302,-0.2428494
0.6550000,0.6550000,0.6550000,-0.1046594,-0.0033883,-0.6073675,-0.1046594,-0.0907346,-0.2372311
0.6575000,0.6575000,0.6575000,-0.1022246,-0.0033533,-0.6002450,-0.1022246,-0.0886945,-0.2317568
0.6600000,0.6600000,0.6600000,-0.0998546,-0.0033187,-0.5932335,-0.0998546,-0.0867082,-0.2264226
0.6625000,0.6625000,0.6625000,-0.0975474,-0.0032844,-0.5863309,-0.0975474,-0.0847742,-0.2212249
0.6650000,0.6650000,0.6650000,-0.0953014,-0.0032505,-0.5795350,-0.0953014,-0.0828910,-0.2161600
0.6675000,0.6675000,0.6675000,-0.0931146,-0.0032170,-0.5728439,-0.0931146,-0.0810569,-0.2112244
0.6700000,0.6700000,0.6700000,-0.0909855,-0.0031838,-0.5662555,-0.0909855,-0.0792707,-0.2064146
0.6725000,0.6725000,0.6725000,-0.0889122,-0.0031510,-0.5597680,-0.0889122,-0.0775309,-0.2017272
0.6750000,0.6750000,0.6750000,-0.0868932,-0.0031186,-0.5533793,-0.0868932,-0.0758361,-0.1971590
0.6775000,0.6775000,0.6775000,-0.0849268,-0.0030866,-0.5470876,-0.0849268,-0.0741850,-0.1927067
0.6800000,0.6800000,0.6800000,-0.0830117,-0.0030549,-0.5408911,-0.0830117,-0.0725763,-0.1883672
0.6825000,0.6825000,0.6825000,-0.0811462,-0.0030236,-0.5347881,-0.0811462,-0.0710089,-0.1841375
0.6850000,0.6850000,0.6850000,-0.0793290,-0.0029927,-0.5287767,-0.0793290,-0.0694815,-0.1800145
0.6875000,0.6875000,0.6875000,-0.0775586,-0.0029621,-0.5228552,-0.0775586,-0.0679929,-0.1759954
0.6900000,0.6900000,0.6900000,-0.0758338,-0.0029318,-0.5170221,-0.0758338,-0.0665421,-0.1720774
0.6925000,0.6925000,0.6925000,-0.0741532,-0.0029019,-0.5112756,-0.0741532,-0.0651280,-0.1682578
0.6950000,0.6950000,0.6950000,-0.0725155,-0.0028724,-0.5056141,-0.0725155,-0.0637494,-0.1645338
0.6975000,0.6975000,0.6975000,-0.0709196,-0.0028432,-0.5000362,-0.0709196,-0.0624055,-0.1609029
0.7000000,0.7000000,0.7000000,-0.0693642,-0.0028144,-0.4945402,-0.0693642,-0.0610952,-0.1573626
0.7025000,0.7025000,0.7025000,-0.0678482,-0.0027859,-0.4891247,-0.0678482,-0.0598175,-0.1539103
0.7050000,0.7050000,0.7050000,-0.0663704,-0.0027577,-0.4837882,-0.0663704,-0.0585715,-0.1505438
0.7075000,0.7075000,0.7075000,-0.0649298,-0.0027299,-0.4785293,-0.0649298,-0.0573564,-0.1472606
0.7100000,0.7100000,0.7100000,-0.0635254,-0.0027024,-0.4733466,-0.0635254,-0.0561713,-0.1440586
0.7125000,0.7125000,0.7125000,-0.0621561,-0.0026752,-0.4682386,-0.0621561,-0.0550152,-0.1409355
0.7150000,0.7150000,0.7150000,-0.0608209,-0.0026484,-0.4632041,-0.0608209,-0.0538875,-0.1378892
0.7175000,0.7175000,0.7175000,-0.0595189,-0.0026218,-0.4582418,-0.0595189,-0.0527873,-0.1349177
0.7200000,0.7200000,0.7200000,-0.0582491,-0.0025956,-0.4533503,-0.0582491,-0.0517139,-0.1320189
0.7225000,0.7225000,0.7225000,-0.0570107,-0.0025697,-0.4485284,-0.0570107,-0.0506664,-0.1291908
0.7250000,0.7250000,0.7250000,-0.0558028,-0.0025442,-0.4437749,-0.0558028,-0.0496443,-0.1264316
0.7275000,0.7275000,0.7275000,-0.0546245,-0.0025189,-0.4390886,-0.0546245,-0.0486467,-0.1237394
0.7300000,0.7300000,0.7300000,-0.0534750,-0.0024939,-0.4344683,-0.0534750,-0.0476730,-0.1211124
0.7325000,0.7325000,0.7325000,-0.0523536,-0.0024692,-0.4299127,-0.0523536,-0.0467227,-0.1185489
0.7350000,0.7350000,0.7350000,-0.0512594,-0.0024449,-0.4254209,-0.0512594,-0.0457949,-0.1160471
0.7375000,0.7375000,0.7375000,-0.0501917,-0.0024208,-0.4209916,-0.0501917,-0.0448892,-0.1136055
0.7400000,0.7400000,0.7400000,-0.0491498,-0.0023970,-0.4166239,-0.0491498,-0.0440048,-0.1112224
0.7425000,0.7425000,0.7425000,-0.0481329,-0.0023735,-0.4123166,-0.0481329,-0.0431413,-0.1088963
0.7450000,0.7450000,0.7450000,-0.0471405,-0.0023503,-0.4080686,-0.0471405,-0.0422981,-0.1066256
0.7475000,0.7475000,0.7475000,-0.0461718,-0.0023274,-0.4038791,-0.0461718,-0.0414745,-0.1044089
0.7500000,0.7500000,0.7500000,-0.0452262,-0.0023047,-0.3997469,-0.0452262,-0.0406702,-0.1022448
0.7525000,0.7525000,0.7525000,-0.0443031,-0.0022823,-0.3956711,-0.0443031,-0.0398846,-0.1001318
0.7550000,0.7550000,0.7550000,-0.0434018,-0.0022602,-0.3916507,-0.0434018,-0.0391171,-0.0980687
0.7575000,0.7575000,0.7575000,-0.0425218,-0.0022383,-0.3876849,-0.0425218,-0.0383674,-0.0960540
0.7600000,0.7600000,0.7600000,-0.0416626,-0.0022168,-0.3837726,-0.0416626,-0.0376349,-0.0940866
0.7625000,0.7625000,0.7625000,-0.0408234,-0.0021954,-0.3799130,-0.0408234,-0.0369191,-0.0921653
0.7650000,0.7650000,0.7650000,-0.0400040,-0.0021744,-0.3761051,-0.0400040,-0.0362197,-0.0902887
0.7675000,0.7675000,0.7675000,-0.0392036,-0.0021536,-0.3723482,-0.0392036,-0.0355362,-0.0884558
0.7700000,0.7700000,0.7700000,-0.0384218,-0.0021330,-0.3686414,-0.0384218,-0.0348682,-0.0866654
0.7725000,0.7725000,0.7725000,-0.0376582,-0.0021127,-0.3649838,-0.0376582,-0.0342153,-0.0849163
0.7750000,0.7750000,0.7750000,-0.0369121,-0.0020926,-0.3613746,-0.0369121,-0.0335770,-0.0832077
0.7775000,0.7775000,0.7775000,-0.0361833,-0.0020728,-0.3578131,-0.0361833,-0.0329531,-0.0815383
0.7800000,0.7800000,0.7800000,-0.0354712,-0.0020532,-0.3542983,-0.0354712,-0.0323431,-0.0799072
0.7825000,0.7825000,0.7825000,-0.0347753,-0.0020338,-0.3508297,-0.0347753,-0.0317468,-0.0783134
0.7850000,0.7850000,0.7850000,-0.0340954,-0.0020147,-0.3474063,-0.0340954,-0.0311636,-0.0767559
0.7875000,0.7875000,0.7875000,-0.0334309,-0.0019958,-0.3440276,-0.0334309,-0.0305934,-0.0752338
0.7900000,0.7900000,0.7900000,-0.0327814,-0.0019771,-0.3406927,-0.0327814,-0.0300357,-0.0737463
0.7925000,0.7925000,0.7925000,-0.0321467,-0.0019586,-0.3374009,-0.0321467,-0.0294903,-0.0722924
0.7950000,0.7950000,0.7950000,-0.0315262,-0.0019404,-0.3341516,-0.0315262,-0.0289568,-0.0708713
0.7975000,0.7975000,0.7975000,-0.0309196,-0.0019224,-0.3309440,-0.0309196,-0.0284349,-0.0694821
0.8000000,0.8000000,0.8000000,-0.0303267,-0.0019046,-0.3277776,-0.0303267,-0.0279244,-0.0681240
0.8025000,0.8025000,0.8025000,-0.0297469,-0.0018870,-0.3246516,-0.0297469,-0.0274250,-0.0667964
0.8050000,0.8050000,0.8050000,-0.0291801,-0.0018696,-0.3215653,-0.0291801,-0.0269363,-0.0654983
0.8075000,0.8075000,0.8075000,-0.0286258,-0.0018524,-0.3185182,-0.0286258,-0.0264582,-0.0642291
0.8100000,0.8100000,0.8100000,-0.0280838,-0.0018354,-0.3155097,-0.0280838,-0.0259903,-0.0629880
0.8125000,0.8125000,0.8125000,-0.0275537,-0.0018187,-0.3125391,-0.0275537,-0.0255324,-0.0617743
0.8150000,0.8150000,0.8150000,-0.0270352,-0.0018021,-0.3096058,-0.0270352,-0.0250843,-0.0605874
0.8175000,0.8175000,0.8175000,-0.0265281,-0.0017857,-0.3067092,-0.0265281,-0.0246457,-0.0594266
0.8200000,0.8200000,0.8200000,-0.0260321,-0.0017695,-0.3038489,-0.0260321,-0.0242163,-0.0582912
0.8225000,0.8225000,0.8225000,-0.0255469,-0.0017535,-0.3010241,-0.0255469,-0.0237961,-0.0571806
0.8250000,0.8250000,0.8250000,-0.0250722,-0.0017377,-0.2982344,-0.0250722,-0.0233846,-0.0560943
0.8275000,0.8275000,0.8275000,-0.0246078,-0.0017220,-0.2954792,-0.0246078,-0.0229818,-0.0550315
0.8300000,0.8300000,0.8300000,-0.0241534,-0.0017066,-0.2927580,-0.0241534,-0.0225873,-0.0539918
0.8325000,0.8325000,0.8325000,-0.0237087,-0.0016913,-0.2900702,-0.0237087,-0.0222011,-0.0529746
0.8350000,0.8350000,0.8350000,-0.0232736,-0.0016762,-0.2874153,-0.0232736,-0.0218229,-0.0519793
0.8375000,0.8375000,0.8375000,-0.0228478,-0.0016613,-0.2847929,-0.0228478,-0.0214525,-0.0510053
0.8400000,0.8400000,0.8400000,-0.0224311,-0.0016465,-0.2822025,-0.0224311,-0.0210897,-0.0500523
0.8425000,0.8425000,0.8425000,-0.0220232,-0.0016319,-0.2796435,-0.0220232,-0.0207344,-0.0491196
0.8450000,0.8450000,0.8450000,-0.0216240,-0.0016175,-0.2771154,-0.0216240,-0.0203864,-0.0482068
0.8475000,0.8475000,0.8475000,-0.0212331,-0.0016033,-0.2746179,-0.0212331,-0.0200454,-0.0473133
0.8500000,0.8500000,0.8500000,-0.0208506,-0.0015892,-0.2721504,-0.0208506,-0.0197114,-0.0464389
0.8525000,0.8525000,0.8525000,-0.0204760,-0.0015753,-0.2697125,-0.0204760,-0.0193841,-0.0455829
0.8550000,0.8550000,0.8550000,-0.0201093,-0.0015615,-0.2673038,-0.0201093,-0.0190635,-0.0447449
0.8575000,0.8575000,0.8575000,-0.0197502,-0.0015479,-0.2649238,-0.0197502,-0.0187493,-0.0439246
0.8600000,0.8600000,0.8600000,-0.0193986,-0.0015344,-0.2625720,-0.0193986,-0.0184414,-0.0431214
0.8625000,0.8625000,0.8625000,-0.0190543,-0.0015211,-0.2602482,-0.0190543,-0.0181396,-0.0423350
0.8650000,0.8650000,0.8650000,-0.0187171,-0.0015080,-0.2579517,-0.0187171,-0.0178439,-0.0415651
0.8675000,0.8675000,0.8675000,-0.0183869,-0.0014950,-0.2556824,-0.0183869,-0.0175540,-0.0408111
0.8700000,0.8700000,0.8700000,-0.0180635,-0.0014821,-0.2534397,-0.0180635,-0.0172699,-0.0400728
0.8725000,0.8725000,0.8725000,-0.0177466,-0.0014694,-0.2512232,-0.0177466,-0.0169914,-0.0393497
0.8750000,0.8750000,0.8750000,-0.0174363,-0.0014568,-0.2490326,-0.0174363,-0.0167183,-0.0386416
0.8775000,0.8775000,0.8775000,-0.0171323,-0.0014444,-0.2468676,-0.0171323,-0.0164506,-0.0379480
0.8800000,0.8800000,0.8800000,-0.0168344,-0.0014321,-0.2447276,-0.0168344,-0.0161882,-0.0372686
0.8825000,0.8825000,0.8825000,-0.0165426,-0.0014199,-0.2426124,-0.0165426,-0.0159308,-0.0366031
0.8850000,0.8850000,0.8850000,-0.0162567,-0.0014079,-0.2405216,-0.0162567,-0.0156785,-0.0359512
0.8875000,0.8875000,0.8875000,-0.0159766,-0.0013960,-0.2384549,-0.0159766,-0.0154310,-0.0353126
0.8900000,0.8900000,0.8900000,-0.0157021,-0.0013843,-0.2364119,-0.0157021,-0.0151883,-0.0346869
0.8925000,0.8925000,0.8925000,-0.0154330,-0.0013726,-0.2343922,-0.0154330,-0.0149503,-0.0340738
0.8950000,0.8950000,0.8950000,-0.0151694,-0.0013611,-0.2323956,-0.0151694,-0.0147168,-0.0334732
0.8975000,0.8975000,0.8975000,-0.0149110,-0.0013498,-0.2304217,-0.0149110,-0.0144878,-0.0328846
0.9000000,0.9000000,0.9000000,-0.0146577,-0.0013385,-0.2284701,-0.0146577,-0.0142632,-0.0323078
0.9025000,0.9025000,0.9025000,-0.0144095,-0.0013274,-0.2265406,-0.0144095,-0.0140428,-0.0317426
0.9050000,0.9050000,0.9050000,-0.0141661,-0.0013164,-0.2246329,-0.0141661,-0.0138266,-0.0311887
0.9075000,0.9075000,0.9075000,-0.0139276,-0.0013055,-0.2227466,-0.0139276,-0.0136145,-0.0306458
0.9100000,0.9100000,0.9100000,-0.0136937,-0.0012947,-0.2208815,-0.0136937,-0.0134063,-0.0301137
0.9125000,0.9125000,0.9125000,-0.0134644,-0.0012841,-0.2190372,-0.0134644,-0.0132021,-0.0295921
0.9150000,0.9150000,0.9150000,-0.0132396,-0.0012735,-0.2172135,-0.0132396,-0.0130017,-0.0290808
0.9175000,0.9175000,0.9175000,-0.0130191,-0.0012631,-0.2154100,-0.0130191,-0.0128050,-0.0285796
0.9200000,0.9200000,0.9200000,-0.0128029,-0.0012528,-0.2136265,-0.0128029,-0.0126119,-0.0280883
0.9225000,0.9225000,0.9225000,-0.0125910,-0.0012426,-0.2118627,-0.0125910,-0.0124224,-0.0276065
0.9250000,0.9250000,0.9250000,-0.0123831,-0.0012325,-0.2101184,-0.0123831,-0.0122365,-0.0271342
0.9275000,0.9275000,0.9275000,-0.0121792,-0.0012225,-0.2083933,-0.0121792,-0.0120539,-0.0266711
0.9300000,0.9300000,0.9300000,-0.0119792,-0.0012127,-0.2066870,-0.0119792,-0.0118747,-0.0262170
0.9325000,0.9325000,0.9325000,-0.0117831,-0.0012029,-0.2049994,-0.0117831,-0.0116988,-0.0257718
0.9350000,0.9350000,0.9350000,-0.0115907,-0.0011932,-0.2033302,-0.0115907,-0.0115261,-0.0253351
0.9375000,0.9375000,0.9375000,-0.0114019,-0.0011837,-0.2016791,-0.0114019,-0.0113565,-0.0249069
0.9400000,0.9400000,0.9400000,-0.0112168,-0.0011742,-0.2000459,-0.0112168,-0.0111900,-0.0244869
0.9425000,0.9425000,0.9425000,-0.0110351,-0.0011648,-0.1984304,-0.0110351,-0.0110264,-0.0240749
0.9450000,0.9450000,0.9450000,-0.0108569,-0.0011556,-0.1968323,-0.0108569,-0.0108659,-0.0236709
0.9475000,0.9475000,0.9475000,-0.0106820,-0.0011464,-0.1952514,-0.0106820,-0.0107082,-0.0232746
0.9500000,0.9500000,0.9500000,-0.0105105,-0.0011373,-0.1936874,-0.0105105,-0.0105533,-0.0228858
0.9525000,0.9525000,0.9525000,-0.0103421,-0.0011284,-0.1921402,-0.0103421,-0.0104012,-0.0225044
0.9550000,0.9550000,0.9550000,-0.0101769,-0.0011195,-0.1906094,-0.0101769,-0.0102518,-0.0221302
0.9575000,0.9575000,0.9575000,-0.0100147,-0.0011107,-0.1890949,-0.0100147,-0.0101051,-0.0217632
0.9600000,0.9600000,0.9600000,-0.0098556,-0.0011020,-0.1875965,-0.0098556,-0.0099609,-0.0214030
0.9625000,0.9625000,0.9625000,-0.0096994,-0.0010934,-0.1861139,-0.0096994,-0.0098193,-0.0210496
0.9650000,0.9650000,0.9650000,-0.0095461,-0.0010848,-0.1846470,-0.0095461,-0.0096801,-0.0207029
0.9675000,0.9675000,0.9675000,-0.0093957,-0.0010764,-0.1831955,-0.0093957,-0.0095434,-0.0203626
0.9700000,0.9700000,0.9700000,-0.0092480,-0.0010681,-0.1817592,-0.0092480,-0.0094091,-0.0200287
0.9725000,0.9725000,0.9725000,-0.0091030,-0.0010598,-0.1803380,-0.0091030,-0.0092772,-0.0197010
0.9750000,0.9750000,0.9750000,-0.0089606,-0.0010516,-0.1789316,-0.0089606,-0.0091475,-0.0193794
0.9775000,0.9775000,0.9775000,-0.0088209,-0.0010435,-0.1775398,-0.0088209,-0.0090200,-0.0190638
0.9800000,0.9800000,0.9800000,-0.0086837,-0.0010355,-0.1761625,-0.0086837,-0.0088948,-0.0187540
0.9825000,0.9825000,0.9825000,-0.0085490,-0.0010276,-0.1747994,-0.0085490,-0.0087717,-0.0184499
0.9850000,0.9850000,0.9850000,-0.0084167,-0.0010197,-0.1734505,-0.0084167,-0.0086507,-0.0181515
0.9875000,0.9875000,0.9875000,-0.0082868,-0.0010120,-0.1721154,-0.0082868,-0.0085318,-0.0178585
0.9900000,0.9900000,0.9900000,-0.0081593,-0.0010043,-0.1707940,-0.0081593,-0.0084149,-0.0175708
0.9925000,0.9925000,0.9925000,-0.0080340,-0.0009967,-0.1694862,-0.0080340,-0.0083000,-0.0172884
0.9950000,0.9950000,0.9950000,-0.0079110,-0.0009891,-0.1681917,-0.0079110,-0.0081871,-0.0170112
0.9975000,0.9975000,0.9975000,-0.0077901,-0.0009817,-0.1669104,-0.0077901,-0.0080760,-0.0167390
1.0000000,1.0000000,1.0000000,-0.0076715,-0.0009743,-0.1656422,-0.0076715,-0.0079668,-0.0164718
1.0025000,1.0025000,1.0025000,-0.0075549,-0.0009669,-0.1643868,-0.0075549,-0.0078595,-0.0162093
1.0050000,1.0050000,1.0050000,-0.0074404,-0.0009597,-0.1631441,-0.0074404,-0.0077539,-0.0159516
1.0075000,1.0075000,1.0075000,-0.0073279,-0.0009525,-0.1619140,-0.0073279,-0.0076501,-0.0156986
1.0100000,1.0100000,1.0100000,-0.0072175,-0.0009454,-0.1606962,-0.0072175,-0.0075481,-0.0154501
1.0125000,1.0125000,1.0125000,-0.0071089,-0.0009384,-0.1594907,-0.0071089,-0.0074477,-0.0152061
1.0150000,1.0150000,1.0150000,-0.0070023,-0.0009314,-0.1582972,-0.0070023,-0.0073490,-0.0149664
1.0175000,1.0175000,1.0175000,-0.0068975,-0.0009246,-0.1571157,-0.0068975,-0.0072519,-0.0147310
1.0200000,1.0200000,1.0200000,-0.0067946,-0.0009177,-0.1559459,-0.0067946,-0.0071565,-0.0144998
1.0225000,1.0225000,1.0225000,-0.0066934,-0.0009110,-0.1547877,-0.0066934,-0.0070625,-0.0142726
1.0250000,1.0250000,1.0250000,-0.0065940,-0.0009043,-0.1536410,-0.0065940,-0.0069702,-0.0140496
1.0275000,1.0275000,1.0275000,-0.0064963,-0.0008976,-0.1525057,-0.0064963,-0.0068793,-0.0138304
1.0300000,1.0300000,1.0300000,-0.0064003,-0.0008911,-0.1513815,-0.0064003,-0.0067899,-0.0136151
1.0325000,1.0325000,1.0325000,-0.0063060,-0.0008846,-0.1502684,-0.0063060,-0.0067019,-0.0134036
1.0350000,1.0350000,1.0350000,-0.0062133,-0.0008782,-0.1491663,-0.0062133,-0.0066154,-0.0131958
1.0375000,1.0375000,1.0375000,-0.0061222,-0.0008718,-0.1480749,-0.0061222,-0.0065303,-0.0129917
1.0400000,1.0400000,1.0400000,-0.0060326,-0.0008655,-0.1469942,-0.0060326,-0.0064465,-0.0127911
1.0425000,1.0425000,1.0425000,-0.0059446,-0.0008592,-0.1459240,-0.0059446,-0.0063641,-0.0125940
1.0450000,1.0450000,1.0450000,-0.0058580,-0.0008530,-0.1448642,-0.0058580,-0.0062830,-0.0124004
1.0475000,1.0475000,1.0475000,-0.0057730,-0.0008469,-0.1438147,-0.0057730,-0.0062032,-0.0122101
1.0500000,1.0500000,1.0500000,-0.0056893,-0.0008408,-0.1427753,-0.0056893,-0.0061246,-0.0120231
1.0525000,1.0525000,1.0525000,-0.0056071,-0.0008348,-0.1417459,-0.0056071,-0.0060473,-0.0118393
1.0550000,1.0550000,1.0550000,-0.0055263,-0.0008288,-0.1407265,-0.0055263,-0.0059713,-0.0116587
1.0575000,1.0575000,1.0575000,-0.0054468,-0.0008229,-0.1397168,-0.0054468,-0.0058964,-0.0114812
1.0600000,1.0600000,1.0600000,-0.0053687,-0.0008171,-0.1387168,-0.0053687,-0.0058227,-0.0113067
1.0625000,1.0625000,1.0625000,-0.0052919,-0.0008113,-0.1377263,-0.0052919,-0.0057501,-0.0111353
1.0650000,1.0650000,1.0650000,-0.0052163,-0.0008056,-0.1367453,-0.0052163,-0.0056787,-0.0109667
1.0675000,1.0675000,1.0675000,-0.0051420,-0.0007999,-0.1357736,-0.0051420,-0.0056084,-0.0108011
1.0700000,1.0700000,1.0700000,-0.0050690,-0.0007942,-0.1348112,-0.0050690,-0.0055392,-0.0106382
1.0725000,1.0725000,1.0725000,-0.0049971,-0.0007887,-0.1338578,-0.0049971,-0.0054710,-0.0104781
1.0750000,1.0750000,1.0750000,-0.0049265,-0.0007831,-0.1329134,-0.0049265,-0.0054039,-0.0103208
1.0775000,1.0775000,1.0775000,-0.0048570,-0.0007777,-0.1319779,-0.0048570,-0.0053379,-0.0101660
1.0800000,1.0800000,1.0800000,-0.0047887,-0.0007722,-0.1310512,-0.0047887,-0.0052728,-0.0100139
1.0825000,1.0825000,1.0825000,-0.0047214,-0.0007669,-0.1301332,-0.0047214,-0.0052088,-0.0098644
1.0850000,1.0850000,1.0850000,-0.0046553,-0.0007615,-0.1292238,-0.0046553,-0.0051457,-0.0097173
1.0875000,1.0875000,1.0875000,-0.0045903,-0.0007563,-0.1283228,-0.0045903,-0.0050836,-0.0095728
1.0900000,1.0900000,1.0900000,-0.0045263,-0.0007510,-0.1274303,-0.0045263,-0.0050224,-0.0094306
1.0925000,1.0925000,1.0925000,-0.0044633,-0.0007459,-0.1265460,-0.0044633,-0.0049622,-0.0092908
1.0950000,1.0950000,1.0950000,-0.0044014,-0.0007407,-0.1256699,-0.0044014,-0.0049029,-0.0091533
1.0975000,1.0975000,1.0975000,-0.0043405,-0.0007356,-0.1248019,-0.0043405,-0.0048444,-0.0090181
1.1000000,1.1000000,1.1000000,-0.0042806,-0.0007306,-0.1239419,-0.0042806,-0.0047869,-0.0088852
1.1025000,1.1025000,1.1025000,-0.0042216,-0.0007256,-0.1230898,-0.0042216,-0.0047302,-0.0087544
1.1050000,1.1050000,1.1050000,-0.0041636,-0.0007207,-0.1222455,-0.0041636,-0.0046743,-0.0086259
1.1075000,1.1075000,1.1075000,-0.0041065,-0.0007158,-0.1214089,-0.0041065,-0.0046193,-0.0084994
1.1100000,1.1100000,1.1100000,-0.0040503,-0.0007109,-0.1205800,-0.0040503,-0.0045651,-0.0083750
1.1125000,1.1125000,1.1125000,-0.0039950,-0.0007061,-0.1197586,-0.0039950,-0.0045117,-0.0082526
1.1150000,1.1150000,1.1150000,-0.0039406,-0.0007013,-0.1189447,-0.0039406,-0.0044591,-0.0081323
1.1175000,1.1175000,1.1175000,-0.0038871,-0.0006966,-0.1181382,-0.0038871,-0.0044072,-0.0080139
1.1200000,1.1200000,1.1200000,-0.0038344,-0.0006919,-0.1173390,-0.0038344,-0.0043562,-0.0078974
1.1225000,1.1225000,1.1225000,-0.0037825,-0.0006873,-0.1165470,-0.0037825,-0.0043058,-0.0077828
1.1250000,1.1250000,1.1250000,-0.0037315,-0.0006827,-0.1157621,-0.0037315,-0.0042562,-0.0076701
1.1275000,1.1275000,1.1275000,-0.0036813,-0.0006781,-0.1149843,-0.0036813,-0.0042074,-0.0075592
1.1300000,1.1300000,1.1300000,-0.0036318,-0.0006736,-0.1142134,-0.0036318,-0.0041592,-0.0074501
1.1325000,1.1325000,1.1325000,-0.0035831,-0.0006691,-0.1134495,-0.0035831,-0.0041118,-0.0073428
1.1350000,1.1350000,1.1350000,-0.0035352,-0.0006647,-0.1126923,-0.0035352,-0.0040650,-0.0072372
1.1375000,1.1375000,1.1375000,-0.0034881,-0.0006602,-0.1119419,-0.0034881,-0.0040189,-0.0071333
1.1400000,1.1400000,1.1400000,-0.0034416,-0.0006559,-0.1111982,-0.0034416,-0.0039734,-0.0070310
1.1425000,1.1425000,1.1425000,-0.0033959,-0.0006516,-0.1104611,-0.0033959,-0.0039286,-0.0069304
1.1450000,1.1450000,1.1450000,-0.0033509,-0.0006473,-0.1097304,-0.0033509,-0.0038845,-0.0068314
1.1475000,1.1475000,1.1475000,-0.0033066,-0.0006430,-0.1090063,-0.0033066,-0.0038410,-0.0067340
1.1500000,1.1500000,1.1500000,-0.0032630,-0.0006388,-0.1082885,-0.0032630,-0.0037981,-0.0066381
1.1525000,1.1525000,1.1525000,-0.0032201,-0.0006346,-0.1075770,-0.0032201,-0.0037558,-0.0065437
1.1550000,1.1550000,1.1550000,-0.0031778,-0.0006305,-0.1068717,-0.0031778,-0.0037141,-0.0064509
1.1575000,1.1575000,1.1575000,-0.0031361,-0.0006264,-0.1061727,-0.0031361,-0.0036730,-0.0063595
1.1600000,1.1600000,1.1600000,-0.0030951,-0.0006223,-0.1054797,-0.0030951,-0.0036324,-0.0062695
1.1625000,1.1625000,1.1625000,-0.0030547,-0.0006183,-0.1047927,-0.0030547,-0.0035925,-0.0061809
1.1650000,1.1650000,1.1650000,-0.0030150,-0.0006143,-0.1041117,-0.0030150,-0.0035531,-0.0060938
1.1675000,1.1675000,1.1675000,-0.0029758,-0.0006103,-0.1034367,-0.0029758,-0.0035142,-0.0060080
1.1700000,1.1700000,1.1700000,-0.0029372,-0.0006064,-0.1027674,-0.0029372,-0.0034759,-0.0059236
1.1725000,1.1725000,1.1725000,-0.0028993,-0.0006025,-0.1021040,-0.0028993,-0.0034381,-0.0058404
1.1750000,1.1750000,1.1750000,-0.0028618,-0.0005986,-0.1014462,-0.0028618,-0.0034009,-0.0057586
1.1775000,1.1775000,1.1775000,-0.0028250,-0.0005948,-0.1007941,-0.0028250,-0.0033641,-0.0056780
1.1800000,1.1800000,1.1800000,-0.0027887,-0.0005910,-0.1001476,-0.0027887,-0.0033279,-0.0055987
1.1825000,1.1825000,1.1825000,-0.0027529,-0.0005872,-0.0995066,-0.0027529,-0.0032922,-0.0055206
1.1850000,1.1850000,1.1850000,-0.0027177,-0.0005835,-0.0988712,-0.0027177,-0.0032569,-0.0054438
1.1875000,1.1875000,1.1875000,-0.0026830,-0.0005798,-0.0982411,-0.0026830,-0.0032222,-0.0053681
1.1900000,1.1900000,1.1900000,-0.0026489,-0.0005761,-0.0976163,-0.0026489,-0.0031879,-0.0052936
1.1925000,1.1925000,1.1925000,-0.0026152,-0.0005725,-0.0969969,-0.0026152,-0.0031540,-0.0052202
1.1950000,1.1950000,1.1950000,-0.0025820,-0.0005689,-0.0963827,-0.0025820,-0.0031207,-0.0051479
1.1975000,1.1975000,1.1975000,-0.0025494,-0.0005653,-0.0957737,-0.0025494,-0.0030877,-0.0050768
1.2000000,1.2000000,1.2000000,-0.0025172,-0.0005618,-0.0951699,-0.0025172,-0.0030553,-0.0050067
1.2025000,1.2025000,1.2025000,-0.0024854,-0.0005582,-0.0945711,-0.0024854,-0.0030232,-0.0049377
1.2050000,1.2050000,1.2050000,-0.0024542,-0.0005548,-0.0939773,-0.0024542,-0.0029916,-0.0048698
1.2075000,1.2075000,1.2075000,-0.0024234,-0.0005513,-0.0933886,-0.0024234,-0.0029604,-0.0048029
1.2100000,1.2100000,1.2100000,-0.0023930,-0.0005479,-0.0928047,-0.0023930,-0.0029297,-0.0047370
1.2125000,1.2125000,1.2125000,-0.0023631,-0.0005445,-0.0922257,-0.0023631,-0.0028993,-0.0046721
1.2150000,1.2150000,1.2150000,-0.0023337,-0.0005411,-0.0916515,-0.0023337,-0.0028694,-0.0046082
1.2175000,1.2175000,1.2175000,-0.0023046,-0.0005377,-0.0910821,-0.0023046,-0.0028398,-0.0045453
1.2200000,1.2200000,1.2200000,-0.0022760,-0.0005344,-0.0905174,-0.0022760,-0.0028106,-0.0044833
1.2225000,1.2225000,1.2225000,-0.0022478,-0.0005311,-0.0899574,-0.0022478,-0.0027818,-0.0044222
1.2250000,1.2250000,1.2250000,-0.0022200,-0.0005279,-0.0894020,-0.0022200,-0.0027534,-0.0043620
1.2275000,1.2275000,1.2275000,-0.0021926,-0.0005246,-0.0888512,-0.0021926,-0.0027254,-0.0043028
1.2300000,1.2300000,1.2300000,-0.0021656,-0.0005214,-0.0883049,-0.0021656,-0.0026977,-0.0042444
1.2325000,1.2325000,1.2325000,-0.0021390,-0.0005182,-0.0877631,-0.0021390,-0.0026704,-0.0041869
1.2350000,1.2350000,1.2350000,-0.0021128,-0.0005151,-0.0872257,-0.0021128,-0.0026435,-0.0041303
1.2375000,1.2375000,1.2375000,-0.0020869,-0.0005119,-0.0866927,-0.0020869,-0.0026169,-0.0040745
1.2400000,1.2400000,1.2400000,-0.0020615,-0.0005088,-0.0861641,-0.0020615,-0.0025906,-0.0040195
1.2425000,1.2425000,1.2425000,-0.0020363,-0.0005057,-0.0856397,-0.0020363,-0.0025647,-0.0039654
1.2450000,1.2450000,1.2450000,-0.0020116,-0.0005027,-0.0851196,-0.0020116,-0.0025391,-0.0039120
1.2475000,1.2475000,1.2475000,-0.0019872,-0.0004996,-0.0846038,-0.0019872,-0.0025138,-0.0038595
1.2500000,1.2500000,1.2500000,-0.0019631,-0.0004966,-0.0840920,-0.0019631,-0.0024889,-0.0038077
1.2525000,1.2525000,1.2525000,-0.0019394,-0.0004936,-0.0835845,-0.0019394,-0.0024643,-0.0037566
1.2550000,1.2550000,1.2550000,-0.0019160,-0.0004907,-0.0830810,-0.0019160,-0.0024400,-0.0037064
1.2575000,1.2575000,1.2575000,-0.0018929,-0.0004877,-0.0825815,-0.0018929,-0.0024160,-0.0036568
1.2600000,1.2600000,1.2600000,-0.0018702,-0.0004848,-0.0820861,-0.0018702,-0.0023923,-0.0036080
1.2625000,1.2625000,1.2625000,-0.0018477,-0.0004819,-0.0815946,-0.0018477,-0.0023689,-0.0035599
1.2650000,1.2650000,1.2650000,-0.0018256,-0.0004791,-0.0811071,-0.0018256,-0.0023458,-0.0035125
1.2675000,1.2675000,1.2675000,-0.0018038,-0.0004762,-0.0806234,-0.0018038,-0.0023230,-0.0034658
1.2700000,1.2700000,1.2700000,-0.0017823,-0.0004734,-0.0801436,-0.0017823,-0.0023005,-0.0034197
1.2725000,1.2725000,1.2725000,-0.0017611,-0.0004706,-0.0796676,-0.0017611,-0.0022782,-0.0033744
1.2750000,1.2750000,1.2750000,-0.0017402,-0.0004678,-0.0791953,-0.0017402,-0.0022563,-0.0033297
1.2775000,1.2775000,1.2775000,-0.0017196,-0.0004651,-0.0787268,-0.0017196,-0.0022346,-0.0032856
1.2800000,1.2800000,1.2800000,-0.0016993,-0.0004623,-0.0782620,-0.0016993,-0.0022132,-0.0032422
1.2825000,1.2825000,1.2825000,-0.0016792,-0.0004596,-0.0778009,-0.0016792,-0.0021920,-0.0031994
1.2850000,1.2850000,1.2850000,-0.0016595,-0.0004569,-0.0773433,-0.0016595,-0.0021711,-0.0031572
1.2875000,1.2875000,1.2875000,-0.0016400,-0.0004542,-0.0768894,-0.0016400,-0.0021505,-0.0031156
1.2900000,1.2900000,1.2900000,-0.0016207,-0.0004516,-0.0764390,-0.0016207,-0.0021301,-0.0030746
1.2925000,1.2925000,1.2925000,-0.0016018,-0.0004490,-0.0759922,-0.0016018,-0.0021100,-0.0030342
1.2950000,1.2950000,1.2950000,-0.0015831,-0.0004463,-0.0755488,-0.0015831,-0.0020901,-0.0029944
1.2975000,1.2975000,1.2975000,-0.0015646,-0.0004438,-0.0751088,-0.0015646,-0.0020705,-0.0029551
1.3000000,1.3000000,1.3000000,-0.0015464,-0.0004412,-0.0746723,-0.0015464,-0.0020511,-0.0029164
1.3025000,1.3025000,1.3025000,-0.0015284,-0.0004386,-0.0742392,-0.0015284,-0.0020319,-0.0028783
1.3050000,1.3050000,1.3050000,-0.0015107,-0.0004361,-0.0738094,-0.0015107,-0.0020130,-0.0028407
1.3075000,1.3075000,1.3075000,-0.0014932,-0.0004336,-0.0733830,-0.0014932,-0.0019943,-0.0028036
1.3100000,1.3100000,1.3100000,-0.0014760,-0.0004311,-0.0729598,-0.0014760,-0.0019758,-0.0027671
1.3125000,1.3125000,1.3125000,-0.0014590,-0.0004286,-0.0725399,-0.0014590,-0.0019576,-0.0027310
1.3150000,1.3150000,1.3150000,-0.0014422,-0.0004262,-0.0721232,-0.0014422,-0.0019395,-0.0026955
1.3175000,1.3175000,1.3175000,-0.0014257,-0.0004237,-0.0717097,-0.0014257,-0.0019217,-0.0026605
1.3200000,1.3200000,1.3200000,-0.0014093,-0.0004213,-0.0712993,-0.0014093,-0.0019041,-0.0026259
1.3225000,1.3225000,1.3225000,-0.0013932,-0.0004189,-0.0708921,-0.0013932,-0.0018867,-0.0025919
1.3250000,1.3250000,1.3250000,-0.0013773,-0.0004165,-0.0704880,-0.0013773,-0.0018695,-0.0025583
1.3275000,1.3275000,1.3275000,-0.0013616,-0.0004142,-0.0700870,-0.0013616,-0.0018525,-0.0025252
1.3300000,1.3300000,1.3300000,-0.0013462,-0.0004118,-0.0696890,-0.0013462,-0.0018357,-0.0024926
1.3325000,1.3325000,1.3325000,-0.0013309,-0.0004095,-0.0692940,-0.0013309,-0.0018191,-0.0024604
1.3350000,1.3350000,1.3350000,-0.0013158,-0.0004072,-0.0689020,-0.0013158,-0.0018027,-0.0024287
1.3375000,1.3375000,1.3375000,-0.0013009,-0.0004049,-0.0685130,-0.0013009,-0.0017865,-0.0023974
1.3400000,1.3400000,1.3400000,-0.0012863,-0.0004026,-0.0681269,-0.0012863,-0.0017705,-0.0023665
1.3425000,1.3425000,1.3425000,-0.0012718,-0.0004004,-0.0677437,-0.0012718,-0.0017547,-0.0023361
1.3450000,1.3450000,1.3450000,-0.0012575,-0.0003981,-0.0673634,-0.0012575,-0.0017391,-0.0023060
1.3475000,1.3475000,1.3475000,-0.0012434,-0.0003959,-0.0669859,-0.0012434,-0.0017236,-0.0022764
1.3500000,1.3500000,1.3500000,-0.0012295,-0.0003937,-0.0666112,-0.0012295,-0.0017083,-0.0022473
1.3525000,1.3525000,1.3525000,-0.0012157,-0.0003915,-0.0662393,-0.0012157,-0.0016932,-0.0022185
1.3550000,1.3550000,1.3550000,-0.0012022,-0.0003893,-0.0658702,-0.0012022,-0.0016783,-0.0021901
1.3575000,1.3575000,1.3575000,-0.0011888,-0.0003872,-0.0655039,-0.0011888,-0.0016635,-0.0021621
1.3600000,1.3600000,1.3600000,-0.0011756,-0.0003850,-0.0651403,-0.0011756,-0.0016490,-0.0021344
1.3625000,1.3625000,1.3625000,-0.0011625,-0.0003829,-0.0647793,-0.0011625,-0.0016345,-0.0021072
1.3650000,1.3650000,1.3650000,-0.0011497,-0.0003808,-0.0644210,-0.0011497,-0.0016203,-0.0020803
1.3675000,1.3675000,1.3675000,-0.0011369,-0.0003787,-0.0640654,-0.0011369,-0.0016062,-0.0020538
1.3700000,1.3700000,1.3700000,-0.0011244,-0.0003766,-0.0637124,-0.0011244,-0.0015923,-0.0020277
1.3725000,1.3725000,1.3725000,-0.0011120,-0.0003745,-0.0633620,-0.0011120,-0.0015785,-0.0020019
1.3750000,1.3750000,1.3750000,-0.0010998,-0.0003725,-0.0630141,-0.0010998,-0.0015649,-0.0019764
1.3775000,1.3775000,1.3775000,-0.0010877,-0.0003705,-0.0626688,-0.0010877,-0.0015514,-0.0019513
1.3800000,1.3800000,1.3800000,-0.0010758,-0.0003684,-0.0623260,-0.0010758,-0.0015381,-0.0019266
1.3825000,1.3825000,1.3825000,-0.0010641,-0.0003664,-0.0619857,-0.0010641,-0.0015249,-0.0019022
1.3850000,1.3850000,1.3850000,-0.0010525,-0.0003644,-0.0616479,-0.0010525,-0.0015119,-0.0018781
1.3875000,1.3875000,1.3875000,-0.0010410,-0.0003625,-0.0613126,-0.0010410,-0.0014990,-0.0018543
1.3900000,1.3900000,1.3900000,-0.0010297,-0.0003605,-0.0609797,-0.0010297,-0.0014863,-0.0018309
1.3925000,1.3925000,1.3925000,-0.0010185,-0.0003586,-0.0606492,-0.0010185,-0.0014737,-0.0018077
1.3950000,1.3950000,1.3950000,-0.0010075,-0.0003566,-0.0603211,-0.0010075,-0.0014613,-0.0017849
1.3975000,1.3975000,1.3975000,-0.0009966,-0.0003547,-0.0599953,-0.0009966,-0.0014490,-0.0017624
1.4000000,1.4000000,1.4000000,-0.0009859,-0.0003528,-0.0596719,-0.0009859,-0.0014368,-0.0017402
1.4025000,1.4025000,1.4025000,-0.0009752,-0.0003509,-0.0593508,-0.0009752,-0.0014248,-0.0017182
1.4050000,1.4050000,1.4050000,-0.0009648,-0.0003490,-0.0590320,-0.0009648,-0.0014129,-0.0016966
1.4075000,1.4075000,1.4075000,-0.0009544,-0.0003472,-0.0587156,-0.0009544,-0.0014011,-0.0016753
1.4100000,1.4100000,1.4100000,-0.0009442,-0.0003453,-0.0584013,-0.0009442,-0.0013895,-0.0016542
1.4125000,1.4125000,1.4125000,-0.0009341,-0.0003435,-0.0580893,-0.0009341,-0.0013779,-0.0016334
1.4150000,1.4150000,1.4150000,-0.0009241,-0.0003416,-0.0577796,-0.0009241,-0.0013666,-0.0016129
1.4175000,1.4175000,1.4175000,-0.0009143,-0.0003398,-0.0574720,-0.0009143,-0.0013553,-0.0015927
1.4200000,1.4200000,1.4200000,-0.0009046,-0.0003380,-0.0571666,-0.0009046,-0.0013441,-0.0015728
1.4225000,1.4225000,1.4225000,-0.0008949,-0.0003362,-0.0568634,-0.0008949,-0.0013331,-0.0015531
1.4250000,1.4250000,1.4250000,-0.0008855,-0.0003345,-0.0565624,-0.0008855,-0.0013222,-0.0015336
1.4275000,1.4275000,1.4275000,-0.0008761,-0.0003327,-0.0562634,-0.0008761,-0.0013114,-0.0015144
1.4300000,1.4300000,1.4300000,-0.0008668,-0.0003309,-0.0559666,-0.0008668,-0.0013008,-0.0014955
1.4325000,1.4325000,1.4325000,-0.0008577,-0.0003292,-0.0556718,-0.0008577,-0.0012902,-0.0014768
1.4350000,1.4350000,1.4350000,-0.0008487,-0.0003275,-0.0553791,-0.0008487,-0.0012798,-0.0014584
1.4375000,1.4375000,1.4375000,-0.0008398,-0.0003258,-0.0550885,-0.0008398,-0.0012694,-0.0014402
1.4400000,1.4400000,1.4400000,-0.0008310,-0.0003241,-0.0547999,-0.0008310,-0.0012592,-0.0014222
1.4425000,1.4425000,1.4425000,-0.0008223,-0.0003224,-0.0545133,-0.0008223,-0.0012491,-0.0014045
1.4450000,1.4450000,1.4450000,-0.0008137,-0.0003207,-0.0542288,-0.0008137,-0.0012391,-0.0013870
1.4475000,1.4475000,1.4475000,-0.0008052,-0.0003190,-0.0539462,-0.0008052,-0.0012292,-0.0013697
1.4500000,1.4500000,1.4500000,-0.0007968,-0.0003174,-0.0536655,-0.0007968,-0.0012194,-0.0013527
1.4525000,1.4525000,1.4525000,-0.0007885,-0.0003157,-0.0533868,-0.0007885,-0.0012097,-0.0013359
1.4550000,1.4550000,1.4550000,-0.0007804,-0.0003141,-0.0531101,-0.0007804,-0.0012001,-0.0013193
1.4575000,1.4575000,1.4575000,-0.0007723,-0.0003125,-0.0528352,-0.0007723,-0.0011906,-0.0013029
1.4600000,1.4600000,1.4600000,-0.0007643,-0.0003109,-0.0525623,-0.0007643,-0.0011812,-0.0012867
1.4625000,1.4625000,1.4625000,-0.0007564,-0.0003093,-0.0522912,-0.0007564,-0.0011719,-0.0012708
1.4650000,1.4650000,1.4650000,-0.0007486,-0.0003077,-0.0520220,-0.0007486,-0.0011627,-0.0012550
1.4675000,1.4675000,1.4675000,-0.0007409,-0.0003061,-0.0517547,-0.0007409,-0.0011536,-0.0012394
1.4700000,1.4700000,1.4700000,-0.0007333,-0.0003045,-0.0514892,-0.0007333,-0.0011446,-0.0012241
1.4725000,1.4725000,1.4725000,-0.0007258,-0.0003030,-0.0512254,-0.0007258,-0.0011357,-0.0012089
1.4750000,1.4750000,1.4750000,-0.0007184,-0.0003014,-0.0509635,-0.0007184,-0.0011269,-0.0011940
1.4775000,1.4775000,1.4775000,-0.0007110,-0.0002999,-0.0507034,-0.0007110,-0.0011182,-0.0011792
1.4800000,1.4800000,1.4800000,-0.0007038,-0.0002984,-0.0504451,-0.0007038,-0.0011095,-0.0011646
1.4825000,1.4825000,1.4825000,-0.0006966,-0.0002969,-0.0501885,-0.0006966,-0.0011010,-0.0011502
1.4850000,1.4850000,1.4850000,-0.0006895,-0.0002953,-0.0499336,-0.0006895,-0.0010925,-0.0011360
1.4875000,1.4875000,1.4875000,-0.0006825,-0.0002939,-0.0496805,-0.0006825,-0.0010841,-0.0011219
1.4900000,1.4900000,1.4900000,-0.0006756,-0.0002924,-0.0494291,-0.0006756,-0.0010758,-0.0011081
1.4925000,1.4925000,1.4925000,-0.0006688,-0.0002909,-0.0491794,-0.0006688,-0.0010676,-0.0010944
1.4950000,1.4950000,1.4950000,-0.0006620,-0.0002894,-0.0489313,-0.0006620,-0.0010595,-0.0010809
1.4975000,1.4975000,1.4975000,-0.0006554,-0.0002880,-0.0486849,-0.0006554,-0.0010514,-0.0010676
1.5000000,1.5000000,1.5000000,-0.0006488,-0.0002865,-0.0484402,-0.0006488,-0.0010435,-0.0010544
1.5025000,1.5025000,1.5025000,-0.0006423,-0.0002851,-0.0481971,-0.0006423,-0.0010356,-0.0010414
1.5050000,1.5050000,1.5050000,-0.0006358,-0.0002837,-0.0479557,-0.0006358,-0.0010278,-0.0010286
1.5075000,1.5075000,1.5075000,-0.0006295,-0.0002823,-0.0477159,-0.0006295,-0.0010201,-0.0010159
1.5100000,1.5100000,1.5100000,-0.0006232,-0.0002809,-0.0474776,-0.0006232,-0.0010124,-0.0010034
1.5125000,1.5125000,1.5125000,-0.0006170,-0.0002795,-0.0472410,-0.0006170,-0.0010048,-0.0009910
1.5150000,1.5150000,1.5150000,-0.0006108,-0.0002781,-0.0470059,-0.0006108,-0.0009974,-0.0009788
1.5175000,1.5175000,1.5175000,-0.0006047,-0.0002767,-0.0467724,-0.0006047,-0.0009899,-0.0009668
1.5200000,1.5200000,1.5200000,-0.0005987,-0.0002753,-0.0465404,-0.0005987,-0.0009826,-0.0009549
1.5225000,1.5225000,1.5225000,-0.0005928,-0.0002740,-0.0463100,-0.0005928,-0.0009753,-0.0009431
1.5250000,1.5250000,1.5250000,-0.0005870,-0.0002726,-0.0460810,-0.0005870,-0.0009681,-0.0009315
1.5275000,1.5275000,1.5275000,-0.0005812,-0.0002713,-0.0458536,-0.0005812,-0.0009610,-0.0009201
1.5300000,1.5300000,1.5300000,-0.0005754,-0.0002699,-0.0456277,-0.0005754,-0.0009539,-0.0009088
1.5325000,1.5325000,1.5325000,-0.0005698,-0.0002686,-0.0454033,-0.0005698,-0.0009469,-0.0008976
1.5350000,1.5350000,1.5350000,-0.0005642,-0.0002673,-0.0451803,-0.0005642,-0.0009400,-0.0008866
1.5375000,1.5375000,1.5375000,-0.0005586,-0.0002660,-0.0449588,-0.0005586,-0.0009331,-0.0008757
1.5400000,1.5400000,1.5400000,-0.0005532,-0.0002647,-0.0447388,-0.0005532,-0.0009263,-0.0008649
1.5425000,1.5425000,1.5425000,-0.0005478,-0.0002634,-0.0445202,-0.0005478,-0.0009196,-0.0008543
1.5450000,1.5450000,1.5450000,-0.0005424,-0.0002621,-0.0443030,-0.0005424,-0.0009129,-0.0008438
1.5475000,1.5475000,1.5475000,-0.0005371,-0.0002608,-0.0440872,-0.0005371,-0.0009064,-0.0008334
1.5500000,1.5500000,1.5500000,-0.0005319,-0.0002596,-0.0438728,-0.0005319,-0.0008998,-0.0008232
1.5525000,1.5525000,1.5525000,-0.0005267,-0.0002583,-0.0436599,-0.0005267,-0.0008934,-0.0008131
1.5550000,1.5550000,1.5550000,-0.0005216,-0.0002571,-0.0434483,-0.0005216,-0.0008869,-0.0008031
1.5575000,1.5575000,1.5575000,-0.0005166,-0.0002558,-0.0432380,-0.0005166,-0.0008806,-0.0007932
1.5600000,1.5600000,1.5600000,-0.0005116,-0.0002546,-0.0430291,-0.0005116,-0.0008743,-0.0007835
1.5625000,1.5625000,1.5625000,-0.0005066,-0.0002534,-0.0428216,-0.0005066,-0.0008681,-0.0007739
1.5650000,1.5650000,1.5650000,-0.0005018,-0.0002521,-0.0426154,-0.0005018,-0.0008619,-0.0007644
1.5675000,1.5675000,1.5675000,-0.0004969,-0.0002509,-0.0424105,-0.0004969,-0.0008558,-0.0007550
1.5700000,1.5700000,1.5700000,-0.0004922,-0.0002497,-0.0422070,-0.0004922,-0.0008498,-0.0007457
1.5725000,1.5725000,1.5725000,-0.0004874,-0.0002485,-0.0420047,-0.0004874,-0.0008438,-0.0007365
1.5750000,1.5750000,1.5750000,-0.0004828,-0.0002474,-0.0418037,-0.0004828,-0.0008378,-0.0007275
1.5775000,1.5775000,1.5775000,-0.0004782,-0.0002462,-0.0416040,-0.0004782,-0.0008320,-0.0007186
1.5800000,1.5800000,1.5800000,-0.0004736,-0.0002450,-0.0414056,-0.0004736,-0.0008261,-0.0007097
1.5825000,1.5825000,1.5825000,-0.0004691,-0.0002438,-0.0412085,-0.0004691,-0.0008204,-0.0007010
1.5850000,1.5850000,1.5850000,-0.0004646,-0.0002427,-0.0410126,-0.0004646,-0.0008146,-0.0006924
1.5875000,1.5875000,1.5875000,-0.0004602,-0.0002415,-0.0408179,-0.0004602,-0.0008090,-0.0006839
1.5900000,1.5900000,1.5900000,-0.0004559,-0.0002404,-0.0406245,-0.0004559,-0.0008034,-0.0006755
1.5925000,1.5925000,1.5925000,-0.0004515,-0.0002393,-0.0404323,-0.0004515,-0.0007978,-0.0006672
1.5950000,1.5950000,1.5950000,-0.0004473,-0.0002381,-0.0402413,-0.0004473,-0.0007923,-0.0006590
1.5975000,1.5975000,1.5975000,-0.0004431,-0.0002370,-0.0400515,-0.0004431,-0.0007869,-0.0006509
