# r[nm],d[nm],daligned[nm],U(d)[kj/mol],V(d)[e/nm],Uslab(d)[kJ/mol],UC(d)[kJ/mol],UK(d)[kJ/mol],UCl(d)[kJ/mol]
0.1900000,0.1900000,0.1900000,1739.8647825,-0.3183096,211.5183297,1739.8647825,1103.0345823,inf
0.1925000,0.1925000,0.1925000,1506.7800427,-0.3133183,181.5736209,1506.7800427,954.6847512,inf
0.1950000,0.1950000,0.1950000,1306.9083103,-0.3083722,156.3002820,1306.9083103,827.5460633,inf
0.1975000,0.1975000,0.1975000,1135.2414899,-0.3034741,134.8984353,1135.2414899,718.4147769,inf
0.2000000,0.2000000,0.2000000,987.5682787,-0.2986262,116.7188455,987.5682787,624.5973193,inf
0.2025000,0.2025000,0.2025000,860.3409532,-0.2938306,101.2318696,860.3409532,543.8249107,inf
0.2050000,0.2050000,0.2050000,750.5654603,-0.2890892,88.0032071,750.5654603,474.1830417,inf
0.2075000,0.2075000,0.2075000,655.7105484,-0.2844030,76.6747978,655.7105484,414.0530352,inf
0.2100000,0.2100000,0.2100000,573.6324620,-0.2797717,66.9497141,573.6324620,362.0635273,inf
0.2125000,0.2125000,0.2125000,502.5123528,-0.2751902,58.5802704,502.5123528,317.0502590,inf
0.2150000,0.2150000,0.2150000,440.8041170,-0.2706451,51.3587872,440.8041170,278.0229563,1835.5943291
0.2175000,0.2175000,0.2175000,387.1909012,-0.2661099,45.1104614,387.1909012,244.1382107,1613.6650667
0.2200000,0.2200000,0.2200000,340.5489631,-0.2615454,39.6877831,340.5489631,214.6772222,1420.2769883
0.2225000,0.2225000,0.2225000,299.9178264,-0.2569064,34.9660731,299.9178264,189.0272453,1251.5369348
0.2250000,0.2250000,0.2250000,264.4757075,-0.2521544,30.8399769,264.4757075,166.6657326,1104.1138786
0.2275000,0.2275000,0.2275000,233.5191478,-0.2472725,27.2208292,233.5191478,147.1465207,975.1532538
0.2300000,0.2300000,0.2300000,206.4458180,-0.2422764,24.0346102,206.4458180,130.0877923,862.2050513
0.2325000,0.2325000,0.2325000,182.7396678,-0.2372189,21.2200677,182.7396678,115.1617965,763.1632586
0.2350000,0.2350000,0.2350000,161.9579241,-0.2321873,18.7267330,161.9579241,102.0863384,676.2147427
0.2375000,0.2375000,0.2375000,143.7197583,-0.2272977,16.5128810,143.7197583,90.6179197,599.7960475
0.2400000,0.2400000,0.2400000,127.6966141,-0.2226850,14.5436632,127.6966141,80.5462468,532.5568915
0.2425000,0.2425000,0.2425000,113.6041901,-0.2184887,12.7895759,113.6041901,71.6897459,473.3293834
0.2450000,0.2450000,0.2450000,101.1959504,-0.2148335,11.2252865,101.1959504,63.8917540,421.1020982
0.2475000,0.2475000,0.2475000,90.2579131,-0.2118090,9.8287536,90.2579131,57.0171711,374.9982188
0.2500000,0.2500000,0.2500000,80.6043919,-0.2094533,8.5805836,80.6043919,50.9494752,334.2569997
0.2525000,0.2525000,0.2525000,72.0743861,-0.2077468,7.4635932,72.0743861,45.5880816,298.2178992
0.2550000,0.2550000,0.2550000,64.5283984,-0.2066186,6.4625508,64.5283984,40.8460423,266.3068601
0.2575000,0.2575000,0.2575000,57.8455701,-0.2059614,5.5640372,57.8455701,36.6480661,238.0243679
0.2600000,0.2600000,0.2600000,51.9211082,-0.2056497,4.7563430,51.9211082,32.9288204,212.9350578
0.2625000,0.2625000,0.2625000,46.6640133,-0.2055553,4.0293378,46.6640133,29.6314716,190.6587381
0.2650000,0.2650000,0.2650000,41.9951149,-0.2055590,3.3742871,41.9951149,26.7064294,170.8627317
0.2675000,0.2675000,0.2675000,37.8453933,-0.2055564,2.7836323,37.8453933,24.1102741,153.2554289
0.2700000,0.2700000,0.2700000,34.1545519,-0.2054607,2.2507617,34.1545519,21.8048537,137.5809056
0.2725000,0.2725000,0.2725000,30.8697969,-0.2052039,1.7697784,30.8697969,19.7565363,123.6144274
0.2750000,0.2750000,0.2750000,27.9447887,-0.2047361,1.3352546,27.9447887,17.9355984,111.1586468
0.2775000,0.2775000,0.2775000,25.3387414,-0.2040252,0.9419807,25.3387414,16.3157219,100.0403146
0.2800000,0.2800000,0.2800000,23.0156543,-0.2030547,0.5847741,23.0156543,14.8735712,90.1073692
0.2825000,0.2825000,0.2825000,20.9436636,-0.2018222,0.2584350,20.9436636,13.5884222,81.2263178
0.2850000,0.2850000,0.2850000,19.0945022,-0.2003369,-0.0421061,19.0945022,12.4418290,73.2798731
0.2875000,0.2875000,0.2875000,17.4430477,-0.1986170,-0.3214954,17.4430477,11.4173221,66.1648416
0.2900000,0.2900000,0.2900000,15.9669400,-0.1966879,-0.5836315,15.9669400,10.5001491,59.7902669
0.2925000,0.2925000,0.2925000,14.6462457,-0.1945795,-0.8314309,14.6462457,9.6770673,54.0758263
0.2950000,0.2950000,0.2950000,13.4631591,-0.1923242,-1.0667576,13.4631591,8.9361984,48.9504620
0.2975000,0.2975000,0.2975000,12.4017333,-0.1899547,-1.2905219,12.4017333,8.2669381,44.3512184
0.3000000,0.3000000,0.3000000,11.4476485,-0.1875021,-1.5028941,11.4476485,7.6599067,40.2222498
0.3025000,0.3025000,0.3025000,10.5880262,-0.1849943,-1.7035622,10.5880262,7.1069158,36.5139656
0.3050000,0.3050000,0.3050000,9.8112936,-0.1824552,-1.8919706,9.8112936,6.6009282,33.1822817
0.3075000,0.3075000,0.3075000,9.1070969,-0.1799039,-2.0675105,9.1070969,6.1359925,30.1879598
0.3100000,0.3100000,0.3100000,8.4662484,-0.1773550,-2.2296568,8.4662484,5.7071429,27.4960195
0.3125000,0.3125000,0.3125000,7.8806908,-0.1748194,-2.3780594,7.8806908,5.3102589,25.0752146
0.3150000,0.3150000,0.3150000,7.3434581,-0.1723048,-2.5125960,7.3434581,4.9418934,22.8975729
0.3175000,0.3175000,0.3175000,6.8486169,-0.1698171,-2.6333879,6.8486169,4.5990885,20.9379927
0.3200000,0.3200000,0.3200000,6.3911779,-0.1673612,-2.7407852,6.3911779,4.2792105,19.1738956
0.3225000,0.3225000,0.3225000,5.9669716,-0.1649407,-2.8353285,5.9669716,3.9798376,17.5849282
0.3250000,0.3250000,0.3250000,5.5724943,-0.1625569,-2.9176998,5.5724943,3.6987179,16.1527049
0.3275000,0.3275000,0.3275000,5.2047396,-0.1602075,-2.9886744,5.2047396,3.4337930,14.8605873
0.3300000,0.3300000,0.3300000,4.8610442,-0.1578848,-3.0490807,4.8610442,3.1832616,13.6934934
0.3325000,0.3325000,0.3325000,4.5389745,-0.1555740,-3.0997738,4.5389745,2.9456448,12.6377369
0.3350000,0.3350000,0.3350000,4.2362730,-0.1532538,-3.1416222,4.2362730,2.7198202,11.6808959
0.3375000,0.3375000,0.3375000,3.9508635,-0.1508967,-3.1755049,3.9508635,2.5050097,10.8117123
0.3400000,0.3400000,0.3400000,3.6808962,-0.1484721,-3.2023123,3.6808962,2.3007227,10.0200186
0.3425000,0.3425000,0.3425000,3.4248021,-0.1459491,-3.2229471,3.4248021,2.1066728,9.2966889
0.3450000,0.3450000,0.3450000,3.1813288,-0.1433001,-3.2383282,3.1813288,1.9226877,8.6336034
0.3475000,0.3475000,0.3475000,2.9495416,-0.1405031,-3.2494087,2.9495416,1.7486300,8.0236190
0.3500000,0.3500000,0.3500000,2.7287887,-0.1375439,-3.2572064,2.7287887,1.5843354,7.4605320
0.3525000,0.3525000,0.3525000,2.5186395,-0.1344164,-3.2628252,2.5186395,1.4295736,6.9390242
0.3550000,0.3550000,0.3550000,2.3188135,-0.1311213,-3.2674306,2.3188135,1.2840266,6.4545837
0.3575000,0.3575000,0.3575000,2.1291109,-0.1276645,-3.2721589,2.1291109,1.1472838,6.0033996
0.3600000,0.3600000,0.3600000,1.9493527,-0.1240549,-3.2779778,1.9493527,1.0188489,5.5822347
0.3625000,0.3625000,0.3625000,1.7793344,-0.1203021,-3.2855489,1.7793344,0.8981594,5.1882937
0.3650000,0.3650000,0.3650000,1.6187911,-0.1164143,-3.2951414,1.6187911,0.7846160,4.8191051
0.3675000,0.3675000,0.3675000,1.4673759,-0.1123981,-3.3066249,1.4673759,0.6776207,4.4724329
0.3700000,0.3700000,0.3700000,1.3246504,-0.1082578,-3.3195330,1.3246504,0.5766173,4.1462283
0.3725000,0.3725000,0.3725000,1.1900906,-0.1039969,-3.3331723,1.1900906,0.4811268,3.8386169
0.3750000,0.3750000,0.3750000,1.0631092,-0.0996194,-3.3467437,1.0631092,0.3907698,3.5479109
0.3775000,0.3775000,0.3775000,0.9430902,-0.0951324,-3.3594515,0.9430902,0.3052738,3.2726314
0.3800000,0.3800000,0.3800000,0.8294331,-0.0905482,-3.3705903,0.8294331,0.2244648,3.0115264
0.3825000,0.3825000,0.3825000,0.7215939,-0.0858854,-3.3796027,0.7215939,0.1482476,2.7635762
0.3850000,0.3850000,0.3850000,0.6191179,-0.0811697,-3.3861062,0.6191179,0.0765802,2.5279830
0.3875000,0.3875000,0.3875000,0.5216575,-0.0764321,-3.3898918,0.5216575,0.0094479,2.3041456
0.3900000,0.3900000,0.3900000,0.4289731,-0.0717078,-3.3909023,0.4289731,-0.0531595,2.0916221
0.3925000,0.3925000,0.3925000,0.3409213,-0.0670329,-3.3891986,0.3409213,-0.1112654,1.8900843
0.3950000,0.3950000,0.3950000,0.2574333,-0.0624423,-3.3849265,0.2574333,-0.1649170,1.6992700
0.3975000,0.3975000,0.3975000,0.1784902,-0.0579678,-3.3782867,0.1784902,-0.2141905,1.5189356
0.4000000,0.4000000,0.4000000,0.1040984,-0.0536369,-3.3695117,0.1040984,-0.2591908,1.3488156
0.4025000,0.4025000,0.4025000,0.0342692,-0.0494724,-3.3588473,0.0342692,-0.3000469,1.1885904
0.4050000,0.4050000,0.4050000,-0.0309968,-0.0454924,-3.3465388,-0.0309968,-0.3369061,1.0378668
0.4075000,0.4075000,0.4075000,-0.0917193,-0.0417106,-3.3328201,-0.0917193,-0.3699289,0.8961714
0.4100000,0.4100000,0.4100000,-0.1479429,-0.0381371,-3.3179055,-0.1479429,-0.3992857,0.7629574
0.4125000,0.4125000,0.4125000,-0.1997376,-0.0347780,-3.3019813,-0.1997376,-0.4251562,0.6376221
0.4150000,0.4150000,0.4150000,-0.2471968,-0.0316362,-3.2851992,-0.2471968,-0.4477318,0.5195328
0.4175000,0.4175000,0.4175000,-0.2904347,-0.0287108,-3.2676695,-0.2904347,-0.4672183,0.4080580
0.4200000,0.4200000,0.4200000,-0.3295851,-0.0259976,-3.2494564,-0.3295851,-0.4838386,0.3025986
0.4225000,0.4225000,0.4225000,-0.3648014,-0.0234884,-3.2305761,-0.3648014,-0.4978328,0.2026155
0.4250000,0.4250000,0.4250000,-0.3962581,-0.0211718,-3.2110003,-0.3962581,-0.5094564,0.1076507
0.4275000,0.4275000,0.4275000,-0.4241523,-0.0190334,-3.1906637,-0.4241523,-0.5189753,0.0173391
0.4300000,0.4300000,0.4300000,-0.4487048,-0.0170566,-3.1694767,-0.4487048,-0.5266598,-0.0685891
0.4325000,0.4325000,0.4325000,-0.4701590,-0.0152240,-3.1473385,-0.4701590,-0.5327768,-0.1503151
0.4350000,0.4350000,0.4350000,-0.4887772,-0.0135181,-3.1241514,-0.4887772,-0.5375820,-0.2279434
0.4375000,0.4375000,0.4375000,-0.5048349,-0.0119230,-3.0998323,-0.5048349,-0.5413132,-0.3015190
0.4400000,0.4400000,0.4400000,-0.5186131,-0.0104246,-3.0743210,-0.5186131,-0.5441846,-0.3710446
0.4425000,0.4425000,0.4425000,-0.5303903,-0.0090116,-3.0475855,-0.5303903,-0.5463835,-0.4364985
0.4450000,0.4450000,0.4450000,-0.5404347,-0.0076751,-3.0196231,-0.5404347,-0.5480675,-0.4978486
0.4475000,0.4475000,0.4475000,-0.5489968,-0.0064088,-2.9904597,-0.5489968,-0.5493636,-0.5550654
0.4500000,0.4500000,0.4500000,-0.5563053,-0.0052084,-2.9601466,-0.5563053,-0.5503680,-0.6081311
0.4525000,0.4525000,0.4525000,-0.5625637,-0.0040709,-2.9287561,-0.5625637,-0.5511476,-0.6570476
0.4550000,0.4550000,0.4550000,-0.5679485,-0.0029940,-2.8963769,-0.5679485,-0.5517427,-0.7018419
0.4575000,0.4575000,0.4575000,-0.5726091,-0.0019757,-2.8631097,-0.5726091,-0.5521728,-0.7425708
0.4600000,0.4600000,0.4600000,-0.5766668,-0.0010141,-2.8290622,-0.5766668,-0.5524431,-0.7793246
0.4625000,0.4625000,0.4625000,-0.5802166,-0.0001072,-2.7943458,-0.5802166,-0.5525525,-0.8122282
0.4650000,0.4650000,0.4650000,-0.5833284,0.0007475,-2.7590721,-0.5833284,-0.5524998,-0.8414415
0.4675000,0.4675000,0.4675000,-0.5860508,0.0015524,-2.7233506,-0.5860508,-0.5522889,-0.8671567
0.4700000,0.4700000,0.4700000,-0.5884166,0.0023102,-2.6872864,-0.5884166,-0.5519310,-0.8895936
0.4725000,0.4725000,0.4725000,-0.5904489,0.0030239,-2.6509792,-0.5904489,-0.5514441,-0.9089932
0.4750000,0.4750000,0.4750000,-0.5921666,0.0036965,-2.6145219,-0.5921666,-0.5508502,-0.9256096
0.4775000,0.4775000,0.4775000,-0.5935903,0.0043315,-2.5780005,-0.5935903,-0.5501717,-0.9397013
0.4800000,0.4800000,0.4800000,-0.5947440,0.0049322,-2.5414936,-0.5947440,-0.5494265,-0.9515240
0.4825000,0.4825000,0.4825000,-0.5956562,0.0055021,-2.5050721,-0.5956562,-0.5486235,-0.9613244
0.4850000,0.4850000,0.4850000,-0.5963579,0.0060446,-2.4688001,-0.5963579,-0.5477579,-0.9693355
0.4875000,0.4875000,0.4875000,-0.5968791,0.0065625,-2.4327343,-0.5968791,-0.5468083,-0.9757739
0.4900000,0.4900000,0.4900000,-0.5972448,0.0070582,-2.3969252,-0.5972448,-0.5457357,-0.9808380
0.4925000,0.4925000,0.4925000,-0.5974705,0.0075334,-2.3614169,-0.5974705,-0.5444848,-0.9847063
0.4950000,0.4950000,0.4950000,-0.5975577,0.0079889,-2.3262476,-0.5975577,-0.5429880,-0.9875367
0.4975000,0.4975000,0.4975000,-0.5974915,0.0084247,-2.2914505,-0.5974915,-0.5411712,-0.9894656
0.5000000,0.5000000,0.5000000,-0.5972391,0.0088398,-2.2570540,-0.5972391,-0.5389604,-0.9906090
0.5025000,0.5025000,0.5025000,-0.5967510,0.0092325,-2.2230818,-0.5967510,-0.5362878,-0.9910632
0.5050000,0.5050000,0.5050000,-0.5959654,0.0096007,-2.1895540,-0.5959654,-0.5330973,-0.9909090
0.5075000,0.5075000,0.5075000,-0.5948126,0.0099419,-2.1564870,-0.5948126,-0.5293475,-0.9902145
0.5100000,0.5100000,0.5100000,-0.5932215,0.0102538,-2.1238940,-0.5932215,-0.5250140,-0.9890397
0.5125000,0.5125000,0.5125000,-0.5911260,0.0105344,-2.0917854,-0.5911260,-0.5200888,-0.9874394
0.5150000,0.5150000,0.5150000,-0.5884692,0.0107820,-2.0601690,-0.5884692,-0.5145798,-0.9854655
0.5175000,0.5175000,0.5175000,-0.5852079,0.0109959,-2.0290506,-0.5852079,-0.5085084,-0.9831668
0.5200000,0.5200000,0.5200000,-0.5813145,0.0111757,-1.9984338,-0.5813145,-0.5019073,-0.9805878
0.5225000,0.5225000,0.5225000,-0.5767771,0.0113217,-1.9683205,-0.5767771,-0.4948176,-0.9777663
0.5250000,0.5250000,0.5250000,-0.5715997,0.0114350,-1.9387113,-0.5715997,-0.4872863,-0.9747299
0.5275000,0.5275000,0.5275000,-0.5657998,0.0115170,-1.9096051,-0.5657998,-0.4793641,-0.9714928
0.5300000,0.5300000,0.5300000,-0.5594069,0.0115695,-1.8810001,-0.5594069,-0.4711035,-0.9680535
0.5325000,0.5325000,0.5325000,-0.5524597,0.0115946,-1.8528930,-0.5524597,-0.4625568,-0.9643935
0.5350000,0.5350000,0.5350000,-0.5450040,0.0115946,-1.8252801,-0.5450040,-0.4537750,-0.9604781
0.5375000,0.5375000,0.5375000,-0.5370900,0.0115719,-1.7981568,-0.5370900,-0.4448069,-0.9562585
0.5400000,0.5400000,0.5400000,-0.5287706,0.0115288,-1.7715177,-0.5287706,-0.4356984,-0.9516764
0.5425000,0.5425000,0.5425000,-0.5200997,0.0114676,-1.7453571,-0.5200997,-0.4264921,-0.9466683
0.5450000,0.5450000,0.5450000,-0.5111306,0.0113905,-1.7196688,-0.5111306,-0.4172268,-0.9411706
0.5475000,0.5475000,0.5475000,-0.5019149,0.0112997,-1.6944461,-0.5019149,-0.4079380,-0.9351252
0.5500000,0.5500000,0.5500000,-0.4925019,0.0111971,-1.6696822,-0.4925019,-0.3986571,-0.9284826
0.5525000,0.5525000,0.5525000,-0.4829378,0.0110845,-1.6453699,-0.4829378,-0.3894122,-0.9212054
0.5550000,0.5550000,0.5550000,-0.4732656,0.0109636,-1.6215019,-0.4732656,-0.3802280,-0.9132697
0.5575000,0.5575000,0.5575000,-0.4635246,0.0108359,-1.5980707,-0.4635246,-0.3711260,-0.9046659
0.5600000,0.5600000,0.5600000,-0.4537505,0.0107026,-1.5750686,-0.4537505,-0.3621249,-0.8953981
0.5625000,0.5625000,0.5625000,-0.4439754,0.0105650,-1.5524881,-0.4439754,-0.3532405,-0.8854831
0.5650000,0.5650000,0.5650000,-0.4342281,0.0104241,-1.5303215,-0.4342281,-0.3444863,-0.8749489
0.5675000,0.5675000,0.5675000,-0.4245339,0.0102808,-1.5085609,-0.4245339,-0.3358736,-0.8638325
0.5700000,0.5700000,0.5700000,-0.4149151,0.0101360,-1.4871988,-0.4149151,-0.3274115,-0.8521780
0.5725000,0.5725000,0.5725000,-0.4053911,0.0099903,-1.4662274,-0.4053911,-0.3191077,-0.8400351
0.5750000,0.5750000,0.5750000,-0.3959785,0.0098444,-1.4456391,-0.3959785,-0.3109680,-0.8274564
0.5775000,0.5775000,0.5775000,-0.3866918,0.0096987,-1.4254263,-0.3866918,-0.3029970,-0.8144965
0.5800000,0.5800000,0.5800000,-0.3775429,0.0095537,-1.4055815,-0.3775429,-0.2951979,-0.8012105
0.5825000,0.5825000,0.5825000,-0.3685419,0.0094098,-1.3860974,-0.3685419,-0.2875731,-0.7876527
0.5850000,0.5850000,0.5850000,-0.3596972,0.0092673,-1.3669665,-0.3596972,-0.2801237,-0.7738756
0.5875000,0.5875000,0.5875000,-0.3510154,0.0091264,-1.3481817,-0.3510154,-0.2728504,-0.7599297
0.5900000,0.5900000,0.5900000,-0.3425018,0.0089874,-1.3297358,-0.3425018,-0.2657528,-0.7458622
0.5925000,0.5925000,0.5925000,-0.3341605,0.0088504,-1.3116219,-0.3341605,-0.2588302,-0.7317177
0.5950000,0.5950000,0.5950000,-0.3259942,0.0087156,-1.2938331,-0.3259942,-0.2520812,-0.7175370
0.5975000,0.5975000,0.5975000,-0.3180050,0.0085830,-1.2763626,-0.3180050,-0.2455041,-0.7033576
0.6000000,0.6000000,0.6000000,-0.3101938,0.0084529,-1.2592037,-0.3101938,-0.2390967,-0.6892138
0.6025000,0.6025000,0.6025000,-0.3025612,0.0083251,-1.2423500,-0.3025612,-0.2328566,-0.6751361
0.6050000,0.6050000,0.6050000,-0.2951066,0.0081998,-1.2257950,-0.2951066,-0.2267811,-0.6611520
0.6075000,0.6075000,0.6075000,-0.2878293,0.0080770,-1.2095325,-0.2878293,-0.2208673,-0.6472859
0.6100000,0.6100000,0.6100000,-0.2807279,0.0079567,-1.1935564,-0.2807279,-0.2151121,-0.6335593
0.6125000,0.6125000,0.6125000,-0.2738006,0.0078388,-1.1778606,-0.2738006,-0.2095122,-0.6199908
0.6150000,0.6150000,0.6150000,-0.2670453,0.0077235,-1.1624393,-0.2670453,-0.2040645,-0.6065967
0.6175000,0.6175000,0.6175000,-0.2604597,0.0076106,-1.1472867,-0.2604597,-0.1987654,-0.5933908
0.6200000,0.6200000,0.6200000,-0.2540411,0.0075001,-1.1323971,-0.2540411,-0.1936116,-0.5803848
0.6225000,0.6225000,0.6225000,-0.2477866,0.0073920,-1.1177651,-0.2477866,-0.1885996,-0.5675886
0.6250000,0.6250000,0.6250000,-0.2416932,0.0072863,-1.1033852,-0.2416932,-0.1837258,-0.5550102
0.6275000,0.6275000,0.6275000,-0.2357579,0.0071829,-1.0892522,-0.2357579,-0.1789869,-0.5426561
0.6300000,0.6300000,0.6300000,-0.2299774,0.0070817,-1.0753610,-0.2299774,-0.1743794,-0.5305314
0.6325000,0.6325000,0.6325000,-0.2243483,0.0069828,-1.0617064,-0.2243483,-0.1698998,-0.5186397
0.6350000,0.6350000,0.6350000,-0.2188674,0.0068860,-1.0482836,-0.2188674,-0.1655447,-0.5069839
0.6375000,0.6375000,0.6375000,-0.2135312,0.0067914,-1.0350877,-0.2135312,-0.1613107,-0.4955656
0.6400000,0.6400000,0.6400000,-0.2083363,0.0066988,-1.0221140,-0.2083363,-0.1571946,-0.4843854
0.6425000,0.6425000,0.6425000,-0.2032794,0.0066082,-1.0093580,-0.2032794,-0.1531931,-0.4734435
0.6450000,0.6450000,0.6450000,-0.1983569,0.0065196,-0.9968152,-0.1983569,-0.1493030,-0.4627391
0.6475000,0.6475000,0.6475000,-0.1935656,0.0064329,-0.9844812,-0.1935656,-0.1455212,-0.4522709
0.6500000,0.6500000,0.6500000,-0.1889021,0.0063481,-0.9723516,-0.1889021,-0.1418445,-0.4420371
0.6525000,0.6525000,0.6525000,-0.1843631,0.0062650,-0.9604223,-0.1843631,-0.1382700,-0.4320355
0.6550000,0.6550000,0.6550000,-0.1799453,0.0061838,-0.9486893,-0.1799453,-0.1347948,-0.4222634
0.6575000,0.6575000,0.6575000,-0.1756455,0.0061042,-0.9371485,-0.1756455,-0.1314160,-0.4127179
0.6600000,0.6600000,0.6600000,-0.1714605,0.0060263,-0.9257960,-0.1714605,-0.1281307,-0.4033957
0.6625000,0.6625000,0.6625000,-0.1673872,0.0059500,-0.9146280,-0.1673872,-0.1249363,-0.3942933
0.6650000,0.6650000,0.6650000,-0.1634226,0.0058753,-0.9036408,-0.1634226,-0.1218302,-0.3854070
0.6675000,0.6675000,0.6675000,-0.1595637,0.0058021,-0.8928308,-0.1595637,-0.1188096,-0.3767331
0.6700000,0.6700000,0.6700000,-0.1558075,0.0057304,-0.8821944,-0.1558075,-0.1158722,-0.3682676
0.6725000,0.6725000,0.6725000,-0.1521513,0.0056601,-0.8717281,-0.1521513,-0.1130155,-0.3600065
0.6750000,0.6750000,0.6750000,-0.1485921,0.0055913,-0.8614286,-0.1485921,-0.1102371,-0.3519455
0.6775000,0.6775000,0.6775000,-0.1451274,0.0055238,-0.8512926,-0.1451274,-0.1075347,-0.3440807
0.6800000,0.6800000,0.6800000,-0.1417544,0.0054576,-0.8413167,-0.1417544,-0.1049061,-0.3364076
0.6825000,0.6825000,0.6825000,-0.1384706,0.0053927,-0.8314979,-0.1384706,-0.1023490,-0.3289223
0.6850000,0.6850000,0.6850000,-0.1352735,0.0053290,-0.8218331,-0.1352735,-0.0998614,-0.3216204
0.6875000,0.6875000,0.6875000,-0.1321605,0.0052666,-0.8123192,-0.1321605,-0.0974413,-0.3144978
0.6900000,0.6900000,0.6900000,-0.1291293,0.0052053,-0.8029534,-0.1291293,-0.0950866,-0.3075502
0.6925000,0.6925000,0.6925000,-0.1261777,0.0051452,-0.7937326,-0.1261777,-0.0927954,-0.3007736
0.6950000,0.6950000,0.6950000,-0.1233032,0.0050862,-0.7846543,-0.1233032,-0.0905658,-0.2941638
0.6975000,0.6975000,0.6975000,-0.1205037,0.0050283,-0.7757154,-0.1205037,-0.0883961,-0.2877169
0.7000000,0.7000000,0.7000000,-0.1177772,0.0049714,-0.7669135,-0.1177772,-0.0862845,-0.2814287
0.7025000,0.7025000,0.7025000,-0.1151214,0.0049155,-0.7582459,-0.1151214,-0.0842292,-0.2752955
0.7050000,0.7050000,0.7050000,-0.1125345,0.0048607,-0.7497099,-0.1125345,-0.0822286,-0.2693132
0.7075000,0.7075000,0.7075000,-0.1100144,0.0048068,-0.7413032,-0.1100144,-0.0802811,-0.2634782
0.7100000,0.7100000,0.7100000,-0.1075592,0.0047538,-0.7330232,-0.1075592,-0.0783852,-0.2577867
0.7125000,0.7125000,0.7125000,-0.1051671,0.0047018,-0.7248675,-0.1051671,-0.0765394,-0.2522350
0.7150000,0.7150000,0.7150000,-0.1028364,0.0046507,-0.7168339,-0.1028364,-0.0747421,-0.2468196
0.7175000,0.7175000,0.7175000,-0.1005652,0.0046004,-0.7089200,-0.1005652,-0.0729920,-0.2415369
0.7200000,0.7200000,0.7200000,-0.0983519,0.0045510,-0.7011236,-0.0983519,-0.0712878,-0.2363836
0.7225000,0.7225000,0.7225000,-0.0961948,0.0045024,-0.6934425,-0.0961948,-0.0696280,-0.2313562
0.7250000,0.7250000,0.7250000,-0.0940924,0.0044547,-0.6858745,-0.0940924,-0.0680114,-0.2264515
0.7275000,0.7275000,0.7275000,-0.0920431,0.0044077,-0.6784177,-0.0920431,-0.0664367,-0.2216663
0.7300000,0.7300000,0.7300000,-0.0900454,0.0043615,-0.6710698,-0.0900454,-0.0649028,-0.2169975
0.7325000,0.7325000,0.7325000,-0.0880978,0.0043160,-0.6638290,-0.0880978,-0.0634085,-0.2124420
0.7350000,0.7350000,0.7350000,-0.0861991,0.0042712,-0.6566932,-0.0861991,-0.0619526,-0.2079969
0.7375000,0.7375000,0.7375000,-0.0843477,0.0042272,-0.6496606,-0.0843477,-0.0605341,-0.2036592
0.7400000,0.7400000,0.7400000,-0.0825424,0.0041838,-0.6427293,-0.0825424,-0.0591518,-0.1994262
0.7425000,0.7425000,0.7425000,-0.0807819,0.0041412,-0.6358974,-0.0807819,-0.0578048,-0.1952951
0.7450000,0.7450000,0.7450000,-0.0790649,0.0040992,-0.6291632,-0.0790649,-0.0564920,-0.1912631
0.7475000,0.7475000,0.7475000,-0.0773903,0.0040578,-0.6225248,-0.0773903,-0.0552125,-0.1873277
0.7500000,0.7500000,0.7500000,-0.0757568,0.0040171,-0.6159807,-0.0757568,-0.0539653,-0.1834864
0.7525000,0.7525000,0.7525000,-0.0741633,0.0039770,-0.6095290,-0.0741633,-0.0527496,-0.1797367
0.7550000,0.7550000,0.7550000,-0.0726087,0.0039375,-0.6031683,-0.0726087,-0.0515643,-0.1760761
0.7575000,0.7575000,0.7575000,-0.0710920,0.0038985,-0.5968968,-0.0710920,-0.0504088,-0.1725024
0.7600000,0.7600000,0.7600000,-0.0696121,0.0038602,-0.5907129,-0.0696121,-0.0492821,-0.1690132
0.7625000,0.7625000,0.7625000,-0.0681680,0.0038224,-0.5846152,-0.0681680,-0.0481835,-0.1656063
0.7650000,0.7650000,0.7650000,-0.0667588,0.0037852,-0.5786022,-0.0667588,-0.0471121,-0.1622796
0.7675000,0.7675000,0.7675000,-0.0653833,0.0037485,-0.5726723,-0.0653833,-0.0460673,-0.1590310
0.7700000,0.7700000,0.7700000,-0.0640409,0.0037123,-0.5668241,-0.0640409,-0.0450483,-0.1558584
0.7725000,0.7725000,0.7725000,-0.0627305,0.0036766,-0.5610561,-0.0627305,-0.0440543,-0.1527598
0.7750000,0.7750000,0.7750000,-0.0614513,0.0036415,-0.5553671,-0.0614513,-0.0430847,-0.1497334
0.7775000,0.7775000,0.7775000,-0.0602025,0.0036068,-0.5497557,-0.0602025,-0.0421388,-0.1467772
0.7800000,0.7800000,0.7800000,-0.0589832,0.0035726,-0.5442205,-0.0589832,-0.0412160,-0.1438893
0.7825000,0.7825000,0.7825000,-0.0577927,0.0035389,-0.5387602,-0.0577927,-0.0403156,-0.1410682
0.7850000,0.7850000,0.7850000,-0.0566301,0.0035057,-0.5333735,-0.0566301,-0.0394370,-0.1383119
0.7875000,0.7875000,0.7875000,-0.0554948,0.0034729,-0.5280592,-0.0554948,-0.0385797,-0.1356188
0.7900000,0.7900000,0.7900000,-0.0543860,0.0034406,-0.5228161,-0.0543860,-0.0377431,-0.1329874
0.7925000,0.7925000,0.7925000,-0.0533030,0.0034087,-0.5176430,-0.0533030,-0.0369265,-0.1304160
0.7950000,0.7950000,0.7950000,-0.0522451,0.0033772,-0.5125387,-0.0522451,-0.0361295,-0.1279030
0.7975000,0.7975000,0.7975000,-0.0512117,0.0033461,-0.5075020,-0.0512117,-0.0353516,-0.1254470
0.8000000,0.8000000,0.8000000,-0.0502021,0.0033155,-0.5025318,-0.0502021,-0.0345922,-0.1230465
0.8025000,0.8025000,0.8025000,-0.0492158,0.0032852,-0.4976270,-0.0492158,-0.0338508,-0.1207001
0.8050000,0.8050000,0.8050000,-0.0482520,0.0032554,-0.4927866,-0.0482520,-0.0331270,-0.1184064
0.8075000,0.8075000,0.8075000,-0.0473102,0.0032259,-0.4880095,-0.0473102,-0.0324203,-0.1161641
0.8100000,0.8100000,0.8100000,-0.0463899,0.0031968,-0.4832945,-0.0463899,-0.0317303,-0.1139718
0.8125000,0.8125000,0.8125000,-0.0454904,0.0031681,-0.4786408,-0.0454904,-0.0310564,-0.1118284
0.8150000,0.8150000,0.8150000,-0.0446113,0.0031398,-0.4740473,-0.0446113,-0.0303983,-0.1097325
0.8175000,0.8175000,0.8175000,-0.0437520,0.0031118,-0.4695130,-0.0437520,-0.0297556,-0.1076830
0.8200000,0.8200000,0.8200000,-0.0429120,0.0030842,-0.4650370,-0.0429120,-0.0291278,-0.1056787
0.8225000,0.8225000,0.8225000,-0.0420908,0.0030569,-0.4606184,-0.0420908,-0.0285147,-0.1037185
0.8250000,0.8250000,0.8250000,-0.0412880,0.0030299,-0.4562561,-0.0412880,-0.0279157,-0.1018013
0.8275000,0.8275000,0.8275000,-0.0405030,0.0030033,-0.4519493,-0.0405030,-0.0273305,-0.0999259
0.8300000,0.8300000,0.8300000,-0.0397355,0.0029771,-0.4476971,-0.0397355,-0.0267589,-0.0980915
0.8325000,0.8325000,0.8325000,-0.0389849,0.0029511,-0.4434987,-0.0389849,-0.0262003,-0.0962968
0.8350000,0.8350000,0.8350000,-0.0382509,0.0029255,-0.4393532,-0.0382509,-0.0256546,-0.0945411
0.8375000,0.8375000,0.8375000,-0.0375330,0.0029001,-0.4352597,-0.0375330,-0.0251213,-0.0928232
0.8400000,0.8400000,0.8400000,-0.0368309,0.0028751,-0.4312174,-0.0368309,-0.0246001,-0.0911423
0.8425000,0.8425000,0.8425000,-0.0361441,0.0028504,-0.4272256,-0.0361441,-0.0240908,-0.0894975
0.8450000,0.8450000,0.8450000,-0.0354722,0.0028260,-0.4232833,-0.0354722,-0.0235930,-0.0878878
0.8475000,0.8475000,0.8475000,-0.0348149,0.0028019,-0.4193900,-0.0348149,-0.0231065,-0.0863125
0.8500000,0.8500000,0.8500000,-0.0341718,0.0027780,-0.4155447,-0.0341718,-0.0226309,-0.0847706
0.8525000,0.8525000,0.8525000,-0.0335427,0.0027545,-0.4117467,-0.0335427,-0.0221660,-0.0832614
0.8550000,0.8550000,0.8550000,-0.0329270,0.0027312,-0.4079954,-0.0329270,-0.0217115,-0.0817842
0.8575000,0.8575000,0.8575000,-0.0323245,0.0027082,-0.4042900,-0.0323245,-0.0212672,-0.0803380
0.8600000,0.8600000,0.8600000,-0.0317350,0.0026854,-0.4006297,-0.0317350,-0.0208328,-0.0789222
0.8625000,0.8625000,0.8625000,-0.0311579,0.0026629,-0.3970139,-0.0311579,-0.0204080,-0.0775360
0.8650000,0.8650000,0.8650000,-0.0305932,0.0026407,-0.3934420,-0.0305932,-0.0199927,-0.0761787
0.8675000,0.8675000,0.8675000,-0.0300404,0.0026188,-0.3899132,-0.0300404,-0.0195865,-0.0748497
0.8700000,0.8700000,0.8700000,-0.0294992,0.0025971,-0.3864268,-0.0294992,-0.0191893,-0.0735482
0.8725000,0.8725000,0.8725000,-0.0289695,0.0025756,-0.3829824,-0.0289695,-0.0188008,-0.0722736
0.8750000,0.8750000,0.8750000,-0.0284508,0.0025544,-0.3795791,-0.0284508,-0.0184209,-0.0710253
0.8775000,0.8775000,0.8775000,-0.0279430,0.0025334,-0.3762164,-0.0279430,-0.0180493,-0.0698027
0.8800000,0.8800000,0.8800000,-0.0274458,0.0025126,-0.3728937,-0.0274458,-0.0176857,-0.0686051
0.8825000,0.8825000,0.8825000,-0.0269590,0.0024921,-0.3696104,-0.0269590,-0.0173301,-0.0674319
0.8850000,0.8850000,0.8850000,-0.0264822,0.0024719,-0.3663659,-0.0264822,-0.0169822,-0.0662827
0.8875000,0.8875000,0.8875000,-0.0260153,0.0024518,-0.3631597,-0.0260153,-0.0166419,-0.0651567
0.8900000,0.8900000,0.8900000,-0.0255580,0.0024320,-0.3599910,-0.0255580,-0.0163089,-0.0640536
0.8925000,0.8925000,0.8925000,-0.0251101,0.0024123,-0.3568595,-0.0251101,-0.0159831,-0.0629727
0.8950000,0.8950000,0.8950000,-0.0246714,0.0023929,-0.3537645,-0.0246714,-0.0156643,-0.0619135
0.8975000,0.8975000,0.8975000,-0.0242416,0.0023738,-0.3507056,-0.0242416,-0.0153523,-0.0608756
0.9000000,0.9000000,0.9000000,-0.0238206,0.0023548,-0.3476821,-0.0238206,-0.0150470,-0.0598584
0.9025000,0.9025000,0.9025000,-0.0234081,0.0023360,-0.3446936,-0.0234081,-0.0147482,-0.0588615
0.9050000,0.9050000,0.9050000,-0.0230040,0.0023174,-0.3417396,-0.0230040,-0.0144557,-0.0578844
0.9075000,0.9075000,0.9075000,-0.0226080,0.0022991,-0.3388196,-0.0226080,-0.0141695,-0.0569266
0.9100000,0.9100000,0.9100000,-0.0222200,0.0022809,-0.3359330,-0.0222200,-0.0138894,-0.0559878
0.9125000,0.9125000,0.9125000,-0.0218398,0.0022629,-0.3330794,-0.0218398,-0.0136151,-0.0550675
0.9150000,0.9150000,0.9150000,-0.0214672,0.0022452,-0.3302583,-0.0214672,-0.0133467,-0.0541652
0.9175000,0.9175000,0.9175000,-0.0211020,0.0022276,-0.3274693,-0.0211020,-0.0130839,-0.0532805
0.9200000,0.9200000,0.9200000,-0.0207440,0.0022102,-0.3247119,-0.0207440,-0.0128266,-0.0524132
0.9225000,0.9225000,0.9225000,-0.0203932,0.0021929,-0.3219856,-0.0203932,-0.0125747,-0.0515627
0.9250000,0.9250000,0.9250000,-0.0200493,0.0021759,-0.3192900,-0.0200493,-0.0123280,-0.0507287
0.9275000,0.9275000,0.9275000,-0.0197122,0.0021590,-0.3166247,-0.0197122,-0.0120865,-0.0499108
0.9300000,0.9300000,0.9300000,-0.0193817,0.0021423,-0.3139892,-0.0193817,-0.0118500,-0.0491087
0.9325000,0.9325000,0.9325000,-0.0190577,0.0021258,-0.3113831,-0.0190577,-0.0116184,-0.0483220
0.9350000,0.9350000,0.9350000,-0.0187400,0.0021095,-0.3088061,-0.0187400,-0.0113916,-0.0475504
0.9375000,0.9375000,0.9375000,-0.0184285,0.0020933,-0.3062576,-0.0184285,-0.0111695,-0.0467935
0.9400000,0.9400000,0.9400000,-0.0181231,0.0020773,-0.3037374,-0.0181231,-0.0109520,-0.0460511
0.9425000,0.9425000,0.9425000,-0.0178236,0.0020615,-0.3012449,-0.0178236,-0.0107389,-0.0453228
0.9450000,0.9450000,0.9450000,-0.0175298,0.0020458,-0.2987799,-0.0175298,-0.0105302,-0.0446082
0.9475000,0.9475000,0.9475000,-0.0172418,0.0020303,-0.2963420,-0.0172418,-0.0103258,-0.0439072
0.9500000,0.9500000,0.9500000,-0.0169592,0.0020149,-0.2939307,-0.0169592,-0.0101255,-0.0432193
0.9525000,0.9525000,0.9525000,-0.0166821,0.0019997,-0.2915457,-0.0166821,-0.0099294,-0.0425444
0.9550000,0.9550000,0.9550000,-0.0164103,0.0019847,-0.2891867,-0.0164103,-0.0097372,-0.0418820
0.9575000,0.9575000,0.9575000,-0.0161436,0.0019698,-0.2868532,-0.0161436,-0.0095489,-0.0412321
0.9600000,0.9600000,0.9600000,-0.0158820,0.0019550,-0.2845450,-0.0158820,-0.0093644,-0.0405942
0.9625000,0.9625000,0.9625000,-0.0156254,0.0019404,-0.2822617,-0.0156254,-0.0091836,-0.0399682
0.9650000,0.9650000,0.9650000,-0.0153736,0.0019260,-0.2800029,-0.0153736,-0.0090065,-0.0393538
0.9675000,0.9675000,0.9675000,-0.0151266,0.0019117,-0.2777684,-0.0151266,-0.0088329,-0.0387507
0.9700000,0.9700000,0.9700000,-0.0148842,0.0018975,-0.2755578,-0.0148842,-0.0086629,-0.0381587
0.9725000,0.9725000,0.9725000,-0.0146463,0.0018835,-0.2733708,-0.0146463,-0.0084962,-0.0375775
0.9750000,0.9750000,0.9750000,-0.0144129,0.0018696,-0.2712070,-0.0144129,-0.0083328,-0.0370070
0.9775000,0.9775000,0.9775000,-0.0141838,0.0018559,-0.2690662,-0.0141838,-0.0081728,-0.0364468
0.9800000,0.9800000,0.9800000,-0.0139590,0.0018423,-0.2669480,-0.0139590,-0.0080159,-0.0358969
0.9825000,0.9825000,0.9825000,-0.0137384,0.0018288,-0.2648522,-0.0137384,-0.0078621,-0.0353569
0.9850000,0.9850000,0.9850000,-0.0135218,0.0018154,-0.2627784,-0.0135218,-0.0077113,-0.0348267
0.9875000,0.9875000,0.9875000,-0.0133092,0.0018022,-0.2607264,-0.0133092,-0.0075636,-0.0343061
0.9900000,0.9900000,0.9900000,-0.0131006,0.0017891,-0.2586959,-0.0131006,-0.0074187,-0.0337948
0.9925000,0.9925000,0.9925000,-0.0128957,0.0017762,-0.2566865,-0.0128957,-0.0072767,-0.0332927
0.9950000,0.9950000,0.9950000,-0.0126946,0.0017633,-0.2546981,-0.0126946,-0.0071375,-0.0327995
0.9975000,0.9975000,0.9975000,-0.0124972,0.0017506,-0.2527303,-0.0124972,-0.0070010,-0.0323151
1.0000000,1.0000000,1.0000000,-0.0123033,0.0017380,-0.2507829,-0.0123033,-0.0068672,-0.0318394
1.0025000,1.0025000,1.0025000,-0.0121130,0.0017255,-0.2488556,-0.0121130,-0.0067360,-0.0313721
1.0050000,1.0050000,1.0050000,-0.0119261,0.0017132,-0.2469481,-0.0119261,-0.0066074,-0.0309130
1.0075000,1.0075000,1.0075000,-0.0117426,0.0017010,-0.2450603,-0.0117426,-0.0064813,-0.0304620
1.0100000,1.0100000,1.0100000,-0.0115624,0.0016888,-0.2431917,-0.0115624,-0.0063576,-0.0300190
1.0125000,1.0125000,1.0125000,-0.0113854,0.0016768,-0.2413423,-0.0113854,-0.0062363,-0.0295837
1.0150000,1.0150000,1.0150000,-0.0112116,0.0016650,-0.2395116,-0.0112116,-0.0061174,-0.0291560
1.0175000,1.0175000,1.0175000,-0.0110409,0.0016532,-0.2376996,-0.0110409,-0.0060007,-0.0287358
1.0200000,1.0200000,1.0200000,-0.0108732,0.0016415,-0.2359060,-0.0108732,-0.0058863,-0.0283228
1.0225000,1.0225000,1.0225000,-0.0107085,0.0016300,-0.2341305,-0.0107085,-0.0057741,-0.0279171
1.0250000,1.0250000,1.0250000,-0.0105467,0.0016185,-0.2323729,-0.0105467,-0.0056641,-0.0275183
1.0275000,1.0275000,1.0275000,-0.0103878,0.0016072,-0.2306329,-0.0103878,-0.0055562,-0.0271264
1.0300000,1.0300000,1.0300000,-0.0102317,0.0015959,-0.2289104,-0.0102317,-0.0054503,-0.0267412
1.0325000,1.0325000,1.0325000,-0.0100783,0.0015848,-0.2272052,-0.0100783,-0.0053465,-0.0263627
1.0350000,1.0350000,1.0350000,-0.0099276,0.0015738,-0.2255169,-0.0099276,-0.0052446,-0.0259906
1.0375000,1.0375000,1.0375000,-0.0097796,0.0015629,-0.2238455,-0.0097796,-0.0051447,-0.0256249
1.0400000,1.0400000,1.0400000,-0.0096341,0.0015520,-0.2221906,-0.0096341,-0.0050466,-0.0252653
1.0425000,1.0425000,1.0425000,-0.0094911,0.0015413,-0.2205521,-0.0094911,-0.0049505,-0.0249119
1.0450000,1.0450000,1.0450000,-0.0093507,0.0015307,-0.2189299,-0.0093507,-0.0048561,-0.0245644
1.0475000,1.0475000,1.0475000,-0.0092126,0.0015202,-0.2173235,-0.0092126,-0.0047635,-0.0242228
1.0500000,1.0500000,1.0500000,-0.0090770,0.0015097,-0.2157330,-0.0090770,-0.0046727,-0.0238870
1.0525000,1.0525000,1.0525000,-0.0089437,0.0014994,-0.2141581,-0.0089437,-0.0045836,-0.0235568
1.0550000,1.0550000,1.0550000,-0.0088126,0.0014892,-0.2125985,-0.0088126,-0.0044962,-0.0232320
1.0575000,1.0575000,1.0575000,-0.0086839,0.0014790,-0.2110542,-0.0086839,-0.0044104,-0.0229128
1.0600000,1.0600000,1.0600000,-0.0085573,0.0014690,-0.2095249,-0.0085573,-0.0043262,-0.0225988
1.0625000,1.0625000,1.0625000,-0.0084328,0.0014590,-0.2080104,-0.0084328,-0.0042436,-0.0222900
1.0650000,1.0650000,1.0650000,-0.0083105,0.0014491,-0.2065106,-0.0083105,-0.0041625,-0.0219863
1.0675000,1.0675000,1.0675000,-0.0081903,0.0014393,-0.2050253,-0.0081903,-0.0040829,-0.0216877
1.0700000,1.0700000,1.0700000,-0.0080721,0.0014296,-0.2035542,-0.0080721,-0.0040048,-0.0213939
1.0725000,1.0725000,1.0725000,-0.0079559,0.0014200,-0.2020973,-0.0079559,-0.0039282,-0.0211050
1.0750000,1.0750000,1.0750000,-0.0078416,0.0014105,-0.2006544,-0.0078416,-0.0038530,-0.0208208
1.0775000,1.0775000,1.0775000,-0.0077293,0.0014010,-0.1992252,-0.0077293,-0.0037792,-0.0205412
1.0800000,1.0800000,1.0800000,-0.0076188,0.0013917,-0.1978097,-0.0076188,-0.0037067,-0.0202662
1.0825000,1.0825000,1.0825000,-0.0075102,0.0013824,-0.1964076,-0.0075102,-0.0036356,-0.0199957
1.0850000,1.0850000,1.0850000,-0.0074034,0.0013732,-0.1950189,-0.0074034,-0.0035658,-0.0197295
1.0875000,1.0875000,1.0875000,-0.0072984,0.0013641,-0.1936433,-0.0072984,-0.0034973,-0.0194677
1.0900000,1.0900000,1.0900000,-0.0071951,0.0013551,-0.1922806,-0.0071951,-0.0034300,-0.0192100
1.0925000,1.0925000,1.0925000,-0.0070935,0.0013461,-0.1909309,-0.0070935,-0.0033640,-0.0189565
1.0950000,1.0950000,1.0950000,-0.0069936,0.0013372,-0.1895937,-0.0069936,-0.0032992,-0.0187071
1.0975000,1.0975000,1.0975000,-0.0068954,0.0013284,-0.1882692,-0.0068954,-0.0032356,-0.0184616
1.1000000,1.1000000,1.1000000,-0.0067987,0.0013197,-0.1869570,-0.0067987,-0.0031731,-0.0182200
1.1025000,1.1025000,1.1025000,-0.0067037,0.0013111,-0.1856570,-0.0067037,-0.0031118,-0.0179823
1.1050000,1.1050000,1.1050000,-0.0066102,0.0013025,-0.1843692,-0.0066102,-0.0030515,-0.0177484
1.1075000,1.1075000,1.1075000,-0.0065182,0.0012940,-0.1830933,-0.0065182,-0.0029924,-0.0175181
1.1100000,1.1100000,1.1100000,-0.0064277,0.0012856,-0.1818292,-0.0064277,-0.0029344,-0.0172915
1.1125000,1.1125000,1.1125000,-0.0063387,0.0012772,-0.1805768,-0.0063387,-0.0028774,-0.0170685
1.1150000,1.1150000,1.1150000,-0.0062511,0.0012690,-0.1793360,-0.0062511,-0.0028214,-0.0168489
1.1175000,1.1175000,1.1175000,-0.0061649,0.0012607,-0.1781066,-0.0061649,-0.0027665,-0.0166328
1.1200000,1.1200000,1.1200000,-0.0060802,0.0012526,-0.1768884,-0.0060802,-0.0027125,-0.0164201
1.1225000,1.1225000,1.1225000,-0.0059967,0.0012445,-0.1756814,-0.0059967,-0.0026596,-0.0162107
1.1250000,1.1250000,1.1250000,-0.0059147,0.0012365,-0.1744854,-0.0059147,-0.0026075,-0.0160045
1.1275000,1.1275000,1.1275000,-0.0058339,0.0012286,-0.1733003,-0.0058339,-0.0025564,-0.0158015
1.1300000,1.1300000,1.1300000,-0.0057544,0.0012208,-0.1721260,-0.0057544,-0.0025063,-0.0156017
1.1325000,1.1325000,1.1325000,-0.0056762,0.0012130,-0.1709623,-0.0056762,-0.0024570,-0.0154049
1.1350000,1.1350000,1.1350000,-0.0055993,0.0012052,-0.1698092,-0.0055993,-0.0024086,-0.0152111
1.1375000,1.1375000,1.1375000,-0.0055235,0.0011976,-0.1686664,-0.0055235,-0.0023611,-0.0150204
1.1400000,1.1400000,1.1400000,-0.0054490,0.0011900,-0.1675340,-0.0054490,-0.0023144,-0.0148325
1.1425000,1.1425000,1.1425000,-0.0053756,0.0011824,-0.1664117,-0.0053756,-0.0022685,-0.0146475
1.1450000,1.1450000,1.1450000,-0.0053034,0.0011750,-0.1652995,-0.0053034,-0.0022235,-0.0144654
1.1475000,1.1475000,1.1475000,-0.0052323,0.0011675,-0.1641972,-0.0052323,-0.0021793,-0.0142859
1.1500000,1.1500000,1.1500000,-0.0051623,0.0011602,-0.1631048,-0.0051623,-0.0021359,-0.0141093
1.1525000,1.1525000,1.1525000,-0.0050935,0.0011529,-0.1620220,-0.0050935,-0.0020932,-0.0139352
1.1550000,1.1550000,1.1550000,-0.0050257,0.0011457,-0.1609489,-0.0050257,-0.0020513,-0.0137638
1.1575000,1.1575000,1.1575000,-0.0049589,0.0011385,-0.1598853,-0.0049589,-0.0020101,-0.0135950
1.1600000,1.1600000,1.1600000,-0.0048932,0.0011314,-0.1588312,-0.0048932,-0.0019697,-0.0134287
1.1625000,1.1625000,1.1625000,-0.0048285,0.0011244,-0.1577863,-0.0048285,-0.0019300,-0.0132649
1.1650000,1.1650000,1.1650000,-0.0047648,0.0011174,-0.1567506,-0.0047648,-0.0018909,-0.0131035
1.1675000,1.1675000,1.1675000,-0.0047021,0.0011104,-0.1557240,-0.0047021,-0.0018526,-0.0129445
1.1700000,1.1700000,1.1700000,-0.0046404,0.0011036,-0.1547064,-0.0046404,-0.0018150,-0.0127879
1.1725000,1.1725000,1.1725000,-0.0045796,0.0010967,-0.1536976,-0.0045796,-0.0017780,-0.0126336
1.1750000,1.1750000,1.1750000,-0.0045197,0.0010900,-0.1526977,-0.0045197,-0.0017416,-0.0124816
1.1775000,1.1775000,1.1775000,-0.0044607,0.0010833,-0.1517065,-0.0044607,-0.0017059,-0.0123318
1.1800000,1.1800000,1.1800000,-0.0044027,0.0010766,-0.1507239,-0.0044027,-0.0016708,-0.0121842
1.1825000,1.1825000,1.1825000,-0.0043455,0.0010700,-0.1497498,-0.0043455,-0.0016364,-0.0120388
1.1850000,1.1850000,1.1850000,-0.0042892,0.0010635,-0.1487841,-0.0042892,-0.0016025,-0.0118955
1.1875000,1.1875000,1.1875000,-0.0042337,0.0010570,-0.1478268,-0.0042337,-0.0015692,-0.0117543
1.1900000,1.1900000,1.1900000,-0.0041791,0.0010505,-0.1468777,-0.0041791,-0.0015366,-0.0116152
1.1925000,1.1925000,1.1925000,-0.0041253,0.0010441,-0.1459367,-0.0041253,-0.0015044,-0.0114781
1.1950000,1.1950000,1.1950000,-0.0040724,0.0010378,-0.1450038,-0.0040724,-0.0014729,-0.0113429
1.1975000,1.1975000,1.1975000,-0.0040202,0.0010315,-0.1440789,-0.0040202,-0.0014419,-0.0112097
1.2000000,1.2000000,1.2000000,-0.0039688,0.0010253,-0.1431619,-0.0039688,-0.0014114,-0.0110784
1.2025000,1.2025000,1.2025000,-0.0039181,0.0010191,-0.1422527,-0.0039181,-0.0013815,-0.0109491
1.2050000,1.2050000,1.2050000,-0.0038682,0.0010130,-0.1413512,-0.0038682,-0.0013521,-0.0108215
1.2075000,1.2075000,1.2075000,-0.0038191,0.0010069,-0.1404573,-0.0038191,-0.0013232,-0.0106958
1.2100000,1.2100000,1.2100000,-0.0037707,0.0010008,-0.1395710,-0.0037707,-0.0012948,-0.0105719
1.2125000,1.2125000,1.2125000,-0.0037230,0.0009948,-0.1386922,-0.0037230,-0.0012669,-0.0104497
1.2150000,1.2150000,1.2150000,-0.0036760,0.0009889,-0.1378208,-0.0036760,-0.0012394,-0.0103293
1.2175000,1.2175000,1.2175000,-0.0036297,0.0009830,-0.1369567,-0.0036297,-0.0012125,-0.0102106
1.2200000,1.2200000,1.2200000,-0.0035841,0.0009771,-0.1360998,-0.0035841,-0.0011860,-0.0100936
1.2225000,1.2225000,1.2225000,-0.0035392,0.0009713,-0.1352501,-0.0035392,-0.0011600,-0.0099782
1.2250000,1.2250000,1.2250000,-0.0034949,0.0009656,-0.1344075,-0.0034949,-0.0011344,-0.0098644
1.2275000,1.2275000,1.2275000,-0.0034512,0.0009599,-0.1335720,-0.0034512,-0.0011092,-0.0097522
1.2300000,1.2300000,1.2300000,-0.0034082,0.0009542,-0.1327433,-0.0034082,-0.0010845,-0.0096416
1.2325000,1.2325000,1.2325000,-0.0033658,0.0009486,-0.1319216,-0.0033658,-0.0010603,-0.0095326
1.2350000,1.2350000,1.2350000,-0.0033241,0.0009430,-0.1311066,-0.0033241,-0.0010364,-0.0094250
1.2375000,1.2375000,1.2375000,-0.0032829,0.0009374,-0.1302984,-0.0032829,-0.0010130,-0.0093190
1.2400000,1.2400000,1.2400000,-0.0032424,0.0009320,-0.1294968,-0.0032424,-0.0009899,-0.0092144
1.2425000,1.2425000,1.2425000,-0.0032024,0.0009265,-0.1287019,-0.0032024,-0.0009673,-0.0091113
1.2450000,1.2450000,1.2450000,-0.0031630,0.0009211,-0.1279134,-0.0031630,-0.0009450,-0.0090096
1.2475000,1.2475000,1.2475000,-0.0031242,0.0009157,-0.1271315,-0.0031242,-0.0009231,-0.0089093
1.2500000,1.2500000,1.2500000,-0.0030859,0.0009104,-0.1263559,-0.0030859,-0.0009016,-0.0088103
1.2525000,1.2525000,1.2525000,-0.0030482,0.0009051,-0.1255866,-0.0030482,-0.0008805,-0.0087128
1.2550000,1.2550000,1.2550000,-0.0030110,0.0008999,-0.1248236,-0.0030110,-0.0008597,-0.0086165
1.2575000,1.2575000,1.2575000,-0.0029743,0.0008947,-0.1240668,-0.0029743,-0.0008393,-0.0085216
1.2600000,1.2600000,1.2600000,-0.0029382,0.0008895,-0.1233161,-0.0029382,-0.0008192,-0.0084280
1.2625000,1.2625000,1.2625000,-0.0029025,0.0008844,-0.1225715,-0.0029025,-0.0007995,-0.0083356
1.2650000,1.2650000,1.2650000,-0.0028674,0.0008793,-0.1218329,-0.0028674,-0.0007801,-0.0082445
1.2675000,1.2675000,1.2675000,-0.0028328,0.0008742,-0.1211003,-0.0028328,-0.0007611,-0.0081546
1.2700000,1.2700000,1.2700000,-0.0027987,0.0008692,-0.1203735,-0.0027987,-0.0007424,-0.0080659
1.2725000,1.2725000,1.2725000,-0.0027650,0.0008643,-0.1196526,-0.0027650,-0.0007239,-0.0079784
1.2750000,1.2750000,1.2750000,-0.0027318,0.0008593,-0.1189374,-0.0027318,-0.0007059,-0.0078921
1.2775000,1.2775000,1.2775000,-0.0026991,0.0008544,-0.1182280,-0.0026991,-0.0006881,-0.0078069
1.2800000,1.2800000,1.2800000,-0.0026669,0.0008496,-0.1175242,-0.0026669,-0.0006706,-0.0077229
1.2825000,1.2825000,1.2825000,-0.0026351,0.0008447,-0.1168260,-0.0026351,-0.0006534,-0.0076400
1.2850000,1.2850000,1.2850000,-0.0026037,0.0008400,-0.1161334,-0.0026037,-0.0006365,-0.0075582
1.2875000,1.2875000,1.2875000,-0.0025728,0.0008352,-0.1154463,-0.0025728,-0.0006199,-0.0074775
1.2900000,1.2900000,1.2900000,-0.0025423,0.0008305,-0.1147645,-0.0025423,-0.0006036,-0.0073979
1.2925000,1.2925000,1.2925000,-0.0025122,0.0008258,-0.1140882,-0.0025122,-0.0005875,-0.0073193
1.2950000,1.2950000,1.2950000,-0.0024825,0.0008212,-0.1134172,-0.0024825,-0.0005718,-0.0072417
1.2975000,1.2975000,1.2975000,-0.0024533,0.0008166,-0.1127515,-0.0024533,-0.0005563,-0.0071652
1.3000000,1.3000000,1.3000000,-0.0024244,0.0008120,-0.1120910,-0.0024244,-0.0005410,-0.0070896
1.3025000,1.3025000,1.3025000,-0.0023960,0.0008074,-0.1114356,-0.0023960,-0.0005261,-0.0070151
1.3050000,1.3050000,1.3050000,-0.0023679,0.0008029,-0.1107854,-0.0023679,-0.0005113,-0.0069415
1.3075000,1.3075000,1.3075000,-0.0023402,0.0007984,-0.1101403,-0.0023402,-0.0004969,-0.0068688
1.3100000,1.3100000,1.3100000,-0.0023129,0.0007940,-0.1095001,-0.0023129,-0.0004826,-0.0067972
1.3125000,1.3125000,1.3125000,-0.0022860,0.0007896,-0.1088650,-0.0022860,-0.0004687,-0.0067264
1.3150000,1.3150000,1.3150000,-0.0022594,0.0007852,-0.1082348,-0.0022594,-0.0004549,-0.0066566
1.3175000,1.3175000,1.3175000,-0.0022332,0.0007809,-0.1076094,-0.0022332,-0.0004414,-0.0065876
1.3200000,1.3200000,1.3200000,-0.0022074,0.0007766,-0.1069889,-0.0022074,-0.0004281,-0.0065196
1.3225000,1.3225000,1.3225000,-0.0021819,0.0007723,-0.1063732,-0.0021819,-0.0004151,-0.0064524
1.3250000,1.3250000,1.3250000,-0.0021567,0.0007680,-0.1057621,-0.0021567,-0.0004022,-0.0063861
1.3275000,1.3275000,1.3275000,-0.0021319,0.0007638,-0.1051558,-0.0021319,-0.0003896,-0.0063206
1.3300000,1.3300000,1.3300000,-0.0021074,0.0007596,-0.1045542,-0.0021074,-0.0003772,-0.0062560
1.3325000,1.3325000,1.3325000,-0.0020833,0.0007555,-0.1039571,-0.0020833,-0.0003650,-0.0061922
1.3350000,1.3350000,1.3350000,-0.0020594,0.0007513,-0.1033646,-0.0020594,-0.0003530,-0.0061292
1.3375000,1.3375000,1.3375000,-0.0020359,0.0007472,-0.1027766,-0.0020359,-0.0003413,-0.0060670
1.3400000,1.3400000,1.3400000,-0.0020127,0.0007432,-0.1021930,-0.0020127,-0.0003297,-0.0060056
1.3425000,1.3425000,1.3425000,-0.0019898,0.0007391,-0.1016139,-0.0019898,-0.0003183,-0.0059449
1.3450000,1.3450000,1.3450000,-0.0019673,0.0007351,-0.1010392,-0.0019673,-0.0003071,-0.0058850
1.3475000,1.3475000,1.3475000,-0.0019450,0.0007311,-0.1004689,-0.0019450,-0.0002961,-0.0058259
1.3500000,1.3500000,1.3500000,-0.0019230,0.0007272,-0.0999028,-0.0019230,-0.0002853,-0.0057675
1.3525000,1.3525000,1.3525000,-0.0019013,0.0007232,-0.0993410,-0.0019013,-0.0002747,-0.0057098
1.3550000,1.3550000,1.3550000,-0.0018799,0.0007193,-0.0987834,-0.0018799,-0.0002642,-0.0056529
1.3575000,1.3575000,1.3575000,-0.0018587,0.0007155,-0.0982300,-0.0018587,-0.0002540,-0.0055967
1.3600000,1.3600000,1.3600000,-0.0018379,0.0007116,-0.0976807,-0.0018379,-0.0002439,-0.0055411
1.3625000,1.3625000,1.3625000,-0.0018173,0.0007078,-0.0971355,-0.0018173,-0.0002340,-0.0054863
1.3650000,1.3650000,1.3650000,-0.0017970,0.0007040,-0.0965945,-0.0017970,-0.0002242,-0.0054321
1.3675000,1.3675000,1.3675000,-0.0017769,0.0007003,-0.0960574,-0.0017769,-0.0002146,-0.0053786
1.3700000,1.3700000,1.3700000,-0.0017571,0.0006965,-0.0955243,-0.0017571,-0.0002052,-0.0053258
1.3725000,1.3725000,1.3725000,-0.0017376,0.0006928,-0.0949952,-0.0017376,-0.0001959,-0.0052736
1.3750000,1.3750000,1.3750000,-0.0017183,0.0006892,-0.0944700,-0.0017183,-0.0001868,-0.0052220
1.3775000,1.3775000,1.3775000,-0.0016993,0.0006855,-0.0939486,-0.0016993,-0.0001779,-0.0051711
1.3800000,1.3800000,1.3800000,-0.0016805,0.0006819,-0.0934312,-0.0016805,-0.0001691,-0.0051208
1.3825000,1.3825000,1.3825000,-0.0016620,0.0006783,-0.0929175,-0.0016620,-0.0001605,-0.0050711
1.3850000,1.3850000,1.3850000,-0.0016437,0.0006747,-0.0924076,-0.0016437,-0.0001520,-0.0050220
1.3875000,1.3875000,1.3875000,-0.0016256,0.0006711,-0.0919014,-0.0016256,-0.0001436,-0.0049735
1.3900000,1.3900000,1.3900000,-0.0016078,0.0006676,-0.0913989,-0.0016078,-0.0001354,-0.0049256
1.3925000,1.3925000,1.3925000,-0.0015902,0.0006641,-0.0909001,-0.0015902,-0.0001273,-0.0048783
1.3950000,1.3950000,1.3950000,-0.0015728,0.0006606,-0.0904050,-0.0015728,-0.0001194,-0.0048315
1.3975000,1.3975000,1.3975000,-0.0015557,0.0006572,-0.0899134,-0.0015557,-0.0001116,-0.0047853
1.4000000,1.4000000,1.4000000,-0.0015387,0.0006537,-0.0894255,-0.0015387,-0.0001040,-0.0047397
1.4025000,1.4025000,1.4025000,-0.0015220,0.0006503,-0.0889410,-0.0015220,-0.0000964,-0.0046946
1.4050000,1.4050000,1.4050000,-0.0015055,0.0006469,-0.0884601,-0.0015055,-0.0000891,-0.0046500
1.4075000,1.4075000,1.4075000,-0.0014892,0.0006436,-0.0879826,-0.0014892,-0.0000818,-0.0046060
1.4100000,1.4100000,1.4100000,-0.0014731,0.0006402,-0.0875086,-0.0014731,-0.0000746,-0.0045625
1.4125000,1.4125000,1.4125000,-0.0014572,0.0006369,-0.0870380,-0.0014572,-0.0000676,-0.0045195
1.4150000,1.4150000,1.4150000,-0.0014415,0.0006336,-0.0865707,-0.0014415,-0.0000607,-0.0044770
1.4175000,1.4175000,1.4175000,-0.0014260,0.0006303,-0.0861069,-0.0014260,-0.0000540,-0.0044351
1.4200000,1.4200000,1.4200000,-0.0014107,0.0006271,-0.0856463,-0.0014107,-0.0000473,-0.0043936
1.4225000,1.4225000,1.4225000,-0.0013956,0.0006239,-0.0851890,-0.0013956,-0.0000407,-0.0043526
1.4250000,1.4250000,1.4250000,-0.0013807,0.0006207,-0.0847350,-0.0013807,-0.0000343,-0.0043121
1.4275000,1.4275000,1.4275000,-0.0013660,0.0006175,-0.0842843,-0.0013660,-0.0000280,-0.0042720
1.4300000,1.4300000,1.4300000,-0.0013514,0.0006143,-0.0838367,-0.0013514,-0.0000218,-0.0042324
1.4325000,1.4325000,1.4325000,-0.0013370,0.0006112,-0.0833923,-0.0013370,-0.0000157,-0.0041933
1.4350000,1.4350000,1.4350000,-0.0013229,0.0006081,-0.0829510,-0.0013229,-0.0000097,-0.0041547
1.4375000,1.4375000,1.4375000,-0.0013088,0.0006050,-0.0825129,-0.0013088,-0.0000038,-0.0041165
1.4400000,1.4400000,1.4400000,-0.0012950,0.0006019,-0.0820779,-0.0012950,0.0000020,-0.0040787
1.4425000,1.4425000,1.4425000,-0.0012813,0.0005988,-0.0816459,-0.0012813,0.0000077,-0.0040414
1.4450000,1.4450000,1.4450000,-0.0012678,0.0005958,-0.0812170,-0.0012678,0.0000133,-0.0040045
1.4475000,1.4475000,1.4475000,-0.0012545,0.0005928,-0.0807910,-0.0012545,0.0000187,-0.0039680
1.4500000,1.4500000,1.4500000,-0.0012413,0.0005898,-0.0803681,-0.0012413,0.0000241,-0.0039319
1.4525000,1.4525000,1.4525000,-0.0012283,0.0005868,-0.0799481,-0.0012283,0.0000294,-0.0038963
1.4550000,1.4550000,1.4550000,-0.0012155,0.0005839,-0.0795310,-0.0012155,0.0000346,-0.0038610
1.4575000,1.4575000,1.4575000,-0.0012028,0.0005809,-0.0791169,-0.0012028,0.0000397,-0.0038262
1.4600000,1.4600000,1.4600000,-0.0011902,0.0005780,-0.0787056,-0.0011902,0.0000448,-0.0037918
1.4625000,1.4625000,1.4625000,-0.0011778,0.0005751,-0.0782972,-0.0011778,0.0000497,-0.0037577
1.4650000,1.4650000,1.4650000,-0.0011656,0.0005722,-0.0778916,-0.0011656,0.0000545,-0.0037241
1.4675000,1.4675000,1.4675000,-0.0011535,0.0005694,-0.0774888,-0.0011535,0.0000593,-0.0036908
1.4700000,1.4700000,1.4700000,-0.0011416,0.0005665,-0.0770888,-0.0011416,0.0000640,-0.0036579
1.4725000,1.4725000,1.4725000,-0.0011298,0.0005637,-0.0766916,-0.0011298,0.0000686,-0.0036253
1.4750000,1.4750000,1.4750000,-0.0011181,0.0005609,-0.0762971,-0.0011181,0.0000731,-0.0035932
1.4775000,1.4775000,1.4775000,-0.0011066,0.0005581,-0.0759053,-0.0011066,0.0000775,-0.0035614
1.4800000,1.4800000,1.4800000,-0.0010952,0.0005554,-0.0755162,-0.0010952,0.0000818,-0.0035299
1.4825000,1.4825000,1.4825000,-0.0010840,0.0005526,-0.0751297,-0.0010840,0.0000861,-0.0034988
1.4850000,1.4850000,1.4850000,-0.0010729,0.0005499,-0.0747459,-0.0010729,0.0000903,-0.0034681
1.4875000,1.4875000,1.4875000,-0.0010619,0.0005472,-0.0743648,-0.0010619,0.0000944,-0.0034377
1.4900000,1.4900000,1.4900000,-0.0010511,0.0005445,-0.0739862,-0.0010511,0.0000985,-0.0034076
1.4925000,1.4925000,1.4925000,-0.0010404,0.0005418,-0.0736101,-0.0010404,0.0001024,-0.0033778
1.4950000,1.4950000,1.4950000,-0.0010298,0.0005392,-0.0732367,-0.0010298,0.0001063,-0.0033484
1.4975000,1.4975000,1.4975000,-0.0010193,0.0005365,-0.0728658,-0.0010193,0.0001102,-0.0033194
1.5000000,1.5000000,1.5000000,-0.0010090,0.0005339,-0.0724973,-0.0010090,0.0001139,-0.0032906
1.5025000,1.5025000,1.5025000,-0.0009988,0.0005313,-0.0721314,-0.0009988,0.0001176,-0.0032621
1.5050000,1.5050000,1.5050000,-0.0009887,0.0005287,-0.0717679,-0.0009887,0.0001212,-0.0032340
1.5075000,1.5075000,1.5075000,-0.0009787,0.0005261,-0.0714069,-0.0009787,0.0001248,-0.0032062
1.5100000,1.5100000,1.5100000,-0.0009689,0.0005236,-0.0710483,-0.0009689,0.0001283,-0.0031786
1.5125000,1.5125000,1.5125000,-0.0009591,0.0005210,-0.0706921,-0.0009591,0.0001317,-0.0031514
1.5150000,1.5150000,1.5150000,-0.0009495,0.0005185,-0.0703383,-0.0009495,0.0001350,-0.0031245
1.5175000,1.5175000,1.5175000,-0.0009400,0.0005160,-0.0699868,-0.0009400,0.0001383,-0.0030979
1.5200000,1.5200000,1.5200000,-0.0009306,0.0005135,-0.0696378,-0.0009306,0.0001416,-0.0030715
1.5225000,1.5225000,1.5225000,-0.0009213,0.0005110,-0.0692910,-0.0009213,0.0001448,-0.0030454
1.5250000,1.5250000,1.5250000,-0.0009121,0.0005086,-0.0689465,-0.0009121,0.0001479,-0.0030197
1.5275000,1.5275000,1.5275000,-0.0009030,0.0005061,-0.0686043,-0.0009030,0.0001509,-0.0029942
1.5300000,1.5300000,1.5300000,-0.0008941,0.0005037,-0.0682644,-0.0008941,0.0001539,-0.0029689
1.5325000,1.5325000,1.5325000,-0.0008852,0.0005013,-0.0679267,-0.0008852,0.0001569,-0.0029440
1.5350000,1.5350000,1.5350000,-0.0008764,0.0004989,-0.0675913,-0.0008764,0.0001597,-0.0029193
1.5375000,1.5375000,1.5375000,-0.0008678,0.0004965,-0.0672581,-0.0008678,0.0001626,-0.0028948
1.5400000,1.5400000,1.5400000,-0.0008592,0.0004941,-0.0669271,-0.0008592,0.0001654,-0.0028707
1.5425000,1.5425000,1.5425000,-0.0008508,0.0004918,-0.0665982,-0.0008508,0.0001681,-0.0028468
1.5450000,1.5450000,1.5450000,-0.0008424,0.0004894,-0.0662715,-0.0008424,0.0001708,-0.0028231
1.5475000,1.5475000,1.5475000,-0.0008341,0.0004871,-0.0659469,-0.0008341,0.0001734,-0.0027997
1.5500000,1.5500000,1.5500000,-0.0008259,0.0004848,-0.0656245,-0.0008259,0.0001759,-0.0027765
1.5525000,1.5525000,1.5525000,-0.0008179,0.0004825,-0.0653042,-0.0008179,0.0001785,-0.0027536
1.5550000,1.5550000,1.5550000,-0.0008099,0.0004802,-0.0649859,-0.0008099,0.0001809,-0.0027309
1.5575000,1.5575000,1.5575000,-0.0008020,0.0004780,-0.0646698,-0.0008020,0.0001833,-0.0027085
1.5600000,1.5600000,1.5600000,-0.0007942,0.0004757,-0.0643557,-0.0007942,0.0001857,-0.0026863
1.5625000,1.5625000,1.5625000,-0.0007864,0.0004735,-0.0640436,-0.0007864,0.0001880,-0.0026643
1.5650000,1.5650000,1.5650000,-0.0007788,0.0004713,-0.0637335,-0.0007788,0.0001903,-0.0026426
1.5675000,1.5675000,1.5675000,-0.0007713,0.0004691,-0.0634255,-0.0007713,0.0001926,-0.0026211
1.5700000,1.5700000,1.5700000,-0.0007638,0.0004669,-0.0631194,-0.0007638,0.0001948,-0.0025998
1.5725000,1.5725000,1.5725000,-0.0007564,0.0004647,-0.0628153,-0.0007564,0.0001969,-0.0025787
1.5750000,1.5750000,1.5750000,-0.0007491,0.0004625,-0.0625132,-0.0007491,0.0001990,-0.0025579
1.5775000,1.5775000,1.5775000,-0.0007419,0.0004604,-0.0622130,-0.0007419,0.0002011,-0.0025372
1.5800000,1.5800000,1.5800000,-0.0007348,0.0004582,-0.0619147,-0.0007348,0.0002031,-0.0025168
1.5825000,1.5825000,1.5825000,-0.0007277,0.0004561,-0.0616183,-0.0007277,0.0002051,-0.0024966
1.5850000,1.5850000,1.5850000,-0.0007208,0.0004540,-0.0613238,-0.0007208,0.0002070,-0.0024766
1.5875000,1.5875000,1.5875000,-0.0007139,0.0004519,-0.0610313,-0.0007139,0.0002089,-0.0024568
1.5900000,1.5900000,1.5900000,-0.0007071,0.0004498,-0.0607405,-0.0007071,0.0002107,-0.0024372
1.5925000,1.5925000,1.5925000,-0.0007003,0.0004477,-0.0604516,-0.0007003,0.0002126,-0.0024178
1.5950000,1.5950000,1.5950000,-0.0006937,0.0004456,-0.0601646,-0.0006937,0.0002143,-0.0023986
1.5975000,1.5975000,1.5975000,-0.0006871,0.0004436,-0.0598794,-0.0006871,0.0002161,-0.0023796
