# r[nm],d[nm],daligned[nm],U(d)[kj/mol],V(d)[e/nm],Uslab(d)[kJ/mol],UC(d)[kJ/mol],UK(d)[kJ/mol],UCl(d)[kJ/mol]
0.1825000,0.1825000,0.1825000,1820.5541258,-0.9310593,254.2152670,1820.5541258,1154.6418634,inf
0.1850000,0.1850000,0.1850000,1608.4675407,-0.9185164,221.5975008,1608.4675407,1019.6562121,inf
0.1875000,0.1875000,0.1875000,1422.7559898,-0.9059938,193.4439677,1422.7559898,901.4996896,inf
0.1900000,0.1900000,0.1900000,1259.9205079,-0.8935061,169.0885829,1259.9205079,797.9375486,inf
0.1925000,0.1925000,0.1925000,1116.9566358,-0.8810653,147.9746378,1116.9566358,707.0495847,inf
0.1950000,0.1950000,0.1950000,991.2791814,-0.8684461,129.6354341,991.2791814,627.1470797,inf
0.1975000,0.1975000,0.1975000,880.5793913,-0.8394525,113.6785006,880.5793913,556.3858663,inf
0.2000000,0.2000000,0.2000000,781.4165229,-0.5926297,99.7725233,781.4165229,492.3565592,inf
0.2025000,0.2025000,0.2025000,690.3658895,-0.3731979,87.6365236,690.3658895,434.5695814,inf
0.2050000,0.2050000,0.2050000,609.4991335,-0.3371668,77.0310483,609.4991335,383.4761532,inf
0.2075000,0.2075000,0.2075000,538.5003516,-0.3249506,67.7511695,538.5003516,338.5660366,inf
0.2100000,0.2100000,0.2100000,476.1116682,-0.3154465,59.6209891,476.1116682,299.0872758,inf
0.2125000,0.2125000,0.2125000,421.1757896,-0.3063933,52.4892545,421.1757896,264.3598724,1764.4337823
0.2150000,0.2150000,0.2150000,372.7432838,-0.2976179,46.2257351,372.7432838,233.8085159,1564.1631461
0.2175000,0.2175000,0.2175000,330.0464855,-0.2891980,40.7181422,330.0464855,206.9385460,1386.0000196
0.2200000,0.2200000,0.2200000,292.4308182,-0.2811442,35.8695081,292.4308182,183.3130406,1228.0839982
0.2225000,0.2225000,0.2225000,259.3091176,-0.2734099,31.5959929,259.3091176,162.5413136,1088.8961688
0.2250000,0.2250000,0.2250000,230.1484822,-0.2659547,27.8250792,230.1484822,144.2741318,966.3273913
0.2275000,0.2275000,0.2275000,204.4694084,-0.2587832,24.4940794,204.4694084,128.2009777,858.3312456
0.2300000,0.2300000,0.2300000,181.8450428,-0.2519670,21.5488711,181.8450428,114.0475633,763.0916167
0.2325000,0.2325000,0.2325000,161.8982672,-0.2456507,18.9427791,161.8982672,101.5732256,679.0233925
0.2350000,0.2350000,0.2350000,144.2975243,-0.2400327,16.6355504,144.2975243,90.5681214,604.7471191
0.2375000,0.2375000,0.2375000,128.7523819,-0.2353175,14.5923929,128.7523819,80.8501511,539.0622676
0.2400000,0.2400000,0.2400000,115.0092859,-0.2316543,12.7830732,115.0092859,72.2616399,480.9231841
0.2425000,0.2425000,0.2425000,102.8475491,-0.2290871,11.1810938,102.8475491,64.6659488,429.4181656
0.2450000,0.2450000,0.2450000,92.0754891,-0.2275379,9.7629805,92.0754891,57.9442657,383.7513994
0.2475000,0.2475000,0.2475000,82.5266826,-0.2268296,8.5077091,82.5266826,51.9927868,343.2273886
0.2500000,0.2500000,0.2500000,74.0564132,-0.2267337,7.3962877,74.0564132,46.7203859,307.2375063
0.2525000,0.2525000,0.2525000,66.5384400,-0.2270232,6.4114881,66.5384400,42.0467629,275.2483985
0.2550000,0.2550000,0.2550000,59.8621935,-0.2275123,5.5377022,59.8621935,37.9009935,246.7920273
0.2575000,0.2575000,0.2575000,53.9304345,-0.2280778,4.7608844,53.9304345,34.2203775,221.4571948
0.2600000,0.2600000,0.2600000,48.6573520,-0.2286618,4.0685340,48.6573520,30.9494951,198.8823819
0.2625000,0.2625000,0.2625000,43.9670299,-0.2292614,3.4496706,43.9670299,28.0394029,178.7497003
0.2650000,0.2650000,0.2650000,39.7922066,-0.2299109,2.8947643,39.7922066,25.4469311,160.7797243
0.2675000,0.2675000,0.2675000,36.0732487,-0.2306615,2.3956055,36.0732487,23.1340647,144.7269738
0.2700000,0.2700000,0.2700000,32.7572829,-0.2315604,1.9451229,32.7572829,21.0673963,130.3758677
0.2725000,0.2725000,0.2725000,29.7974437,-0.2326343,1.5371842,29.7974437,19.2176387,117.5370413
0.2750000,0.2750000,0.2750000,27.1522177,-0.2338784,1.1664152,27.1522177,17.5591788,106.0439929
0.2775000,0.2775000,0.2775000,24.7848721,-0.2352516,0.8280636,24.7848721,16.0696603,95.7500657
0.2800000,0.2800000,0.2800000,22.6629579,-0.2366802,0.5179118,22.6629579,14.7295876,86.5257826
0.2825000,0.2825000,0.2825000,20.7578755,-0.2380674,0.2322282,20.7578755,13.5219564,78.2565365
0.2850000,0.2850000,0.2850000,19.0444837,-0.2393066,-0.0322576,19.0444837,12.4319196,70.8406186
0.2875000,0.2875000,0.2875000,17.5007353,-0.2402962,-0.2783662,17.5007353,11.4464935,64.1875510
0.2900000,0.2900000,0.2900000,16.1073315,-0.2409508,-0.5084726,16.1073315,10.5543021,58.2166817
0.2925000,0.2925000,0.2925000,14.8473945,-0.2412092,-0.7245125,14.8473945,9.7453528,52.8559983
0.2950000,0.2950000,0.2950000,13.7061647,-0.2410362,-0.9280051,13.7061647,9.0108382,48.0411209
0.2975000,0.2975000,0.2975000,12.6707285,-0.2404205,-1.1201102,12.6707285,8.3429614,43.7144391
0.3000000,0.3000000,0.3000000,11.7297744,-0.2393694,-1.3017299,11.7297744,7.7347886,39.8243655
0.3025000,0.3025000,0.3025000,10.8733759,-0.2379027,-1.4736426,10.8733759,7.1801294,36.3246838
0.3050000,0.3050000,0.3050000,10.0927953,-0.2360474,-1.6366397,10.0927953,6.6734449,33.1739777
0.3075000,0.3075000,0.3075000,9.3803081,-0.2338329,-1.7916178,9.3803081,6.2097751,30.3351311
0.3100000,0.3100000,0.3100000,8.7290498,-0.2312889,-1.9395943,8.7290498,5.7846788,27.7748930
0.3125000,0.3125000,0.3125000,8.1328899,-0.2284436,-2.0816358,8.1328899,5.3941772,25.4634982
0.3150000,0.3150000,0.3150000,7.5863320,-0.2253238,-2.2187281,7.5863320,5.0346969,23.3743356
0.3175000,0.3175000,0.3175000,7.0844361,-0.2219552,-2.3516332,7.0844361,4.7030105,21.4836507
0.3200000,0.3200000,0.3200000,6.6227568,-0.2183628,-2.4807849,6.6227568,4.3961775,19.7702739
0.3225000,0.3225000,0.3225000,6.1972904,-0.2145704,-2.6062537,6.1972904,4.1114906,18.2153668
0.3250000,0.3250000,0.3250000,5.8044244,-0.2106000,-2.7277901,5.8044244,3.8464337,16.8021849
0.3275000,0.3275000,0.3275000,5.4408876,-0.2064715,-2.8449261,5.4408876,3.5986594,15.5158607
0.3300000,0.3300000,0.3300000,5.1036997,-0.2022011,-2.9571027,5.1036997,3.3659873,14.3432074
0.3325000,0.3325000,0.3325000,4.7901229,-0.1978008,-3.0637872,4.7901229,3.1464234,13.2725445
0.3350000,0.3350000,0.3350000,4.4976193,-0.1932779,-3.1645569,4.4976193,2.9381911,12.2935399
0.3375000,0.3375000,0.3375000,4.2238194,-0.1886355,-3.2591385,4.2238194,2.7397627,11.3970628
0.3400000,0.3400000,0.3400000,3.9665085,-0.1838728,-3.3474080,3.9665085,2.5498764,10.5750427
0.3425000,0.3425000,0.3425000,3.7236317,-0.1789878,-3.4293658,3.7236317,2.3675315,9.8203327
0.3450000,0.3450000,0.3450000,3.4933180,-0.1739798,-3.5051003,3.4933180,2.1919603,9.1265815
0.3475000,0.3475000,0.3475000,3.2739140,-0.1688547,-3.5747525,3.2739140,2.0225847,8.4881167
0.3500000,0.3500000,0.3500000,3.0640145,-0.1636286,-3.6384879,3.0640145,1.8589718,7.8998448
0.3525000,0.3525000,0.3525000,2.8624786,-0.1583317,-3.6964766,2.8624786,1.7007995,7.3571685
0.3550000,0.3550000,0.3550000,2.6684217,-0.1530086,-3.7488821,2.6684217,1.5478372,6.8559199
0.3575000,0.3575000,0.3575000,2.4811873,-0.1477160,-3.7958561,2.4811873,1.3999410,6.3923076
0.3600000,0.3600000,0.3600000,2.3003051,-0.1425172,-3.8375376,2.3003051,1.2570526,5.9628734
0.3625000,0.3625000,0.3625000,2.1254491,-0.1374748,-3.8740565,2.1254491,1.1191975,5.5644556
0.3650000,0.3650000,0.3650000,1.9564026,-0.1326437,-3.9055396,1.9564026,0.9864749,5.1941558
0.3675000,0.3675000,0.3675000,1.7930347,-0.1280644,-3.9321186,1.7930347,0.8590405,4.8493056
0.3700000,0.3700000,0.3700000,1.6352851,-0.1237585,-3.9539395,1.6352851,0.7370841,4.5274329
0.3725000,0.3725000,0.3725000,1.4831526,-0.1197271,-3.9711708,1.4831526,0.6208051,4.2262312
0.3750000,0.3750000,0.3750000,1.3366845,-0.1159512,-3.9840103,1.3366845,0.5103896,3.9435341
0.3775000,0.3775000,0.3775000,1.1959642,-0.1123961,-3.9926874,1.1959642,0.4059896,3.6773038
0.3800000,0.3800000,0.3800000,1.0610971,-0.1090163,-3.9974601,1.0610971,0.3077047,3.4256360
0.3825000,0.3825000,0.3825000,0.9321979,-0.1057631,-3.9986071,0.9321979,0.2155690,3.1867790
0.3850000,0.3850000,0.3850000,0.8093770,-0.1025910,-3.9964166,0.8093770,0.1295421,2.9591618
0.3875000,0.3875000,0.3875000,0.6927285,-0.0994630,-3.9911730,0.6927285,0.0495079,2.7414210
0.3900000,0.3900000,0.3900000,0.5823164,-0.0963537,-3.9831446,0.5823164,-0.0247202,2.5324173
0.3925000,0.3925000,0.3925000,0.4781631,-0.0932495,-3.9725740,0.4781631,-0.0933875,2.3312388
0.3950000,0.3950000,0.3950000,0.3802380,-0.0901468,-3.9596725,0.3802380,-0.1567806,2.1371882
0.3975000,0.3975000,0.3975000,0.2884516,-0.0870497,-3.9446167,0.2884516,-0.2152089,1.9497609
0.4000000,0.4000000,0.4000000,0.2026552,-0.0839666,-3.9275505,0.2026552,-0.2689867,1.7686163
0.4025000,0.4025000,0.4025000,0.1226473,-0.0809088,-3.9085873,0.1226473,-0.3184179,1.5935485
0.4050000,0.4050000,0.4050000,0.0481867,-0.0778894,-3.8878154,0.0481867,-0.3637858,1.4244572
0.4075000,0.4075000,0.4075000,-0.0209923,-0.0749230,-3.8653035,-0.0209923,-0.4053474,1.2613227
0.4100000,0.4100000,0.4100000,-0.0851637,-0.0720259,-3.8411068,-0.0851637,-0.4433329,1.1041823
0.4125000,0.4125000,0.4125000,-0.1445959,-0.0692158,-3.8152725,-0.1445959,-0.4779485,0.9531109
0.4150000,0.4150000,0.4150000,-0.1995423,-0.0665110,-3.7878451,-0.1995423,-0.5093821,0.8082035
0.4175000,0.4175000,0.4175000,-0.2502369,-0.0639294,-3.7588709,-0.2502369,-0.5378099,0.6695613
0.4200000,0.4200000,0.4200000,-0.2968936,-0.0614871,-3.7284010,-0.2968936,-0.5634030,0.5372790
0.4225000,0.4225000,0.4225000,-0.3397100,-0.0591969,-3.6964939,-0.3397100,-0.5863321,0.4114336
0.4250000,0.4250000,0.4250000,-0.3788725,-0.0570678,-3.6632166,-0.3788725,-0.6067714,0.2920747
0.4275000,0.4275000,0.4275000,-0.4145623,-0.0551036,-3.6286452,-0.4145623,-0.6248994,0.1792155
0.4300000,0.4300000,0.4300000,-0.4469610,-0.0533035,-3.5928639,-0.4469610,-0.6408981,0.0728264
0.4325000,0.4325000,0.4325000,-0.4762546,-0.0516624,-3.5559645,-0.4762546,-0.6549508,-0.0271683
0.4350000,0.4350000,0.4350000,-0.5026355,-0.0501714,-3.5180445,-0.5026355,-0.6672391,-0.1208888
0.4375000,0.4375000,0.4375000,-0.5263018,-0.0488192,-3.4792060,-0.5263018,-0.6779408,-0.2084950
0.4400000,0.4400000,0.4400000,-0.5474558,-0.0475934,-3.4395532,-0.5474558,-0.6872264,-0.2901775
0.4425000,0.4425000,0.4425000,-0.5663003,-0.0464814,-3.3991916,-0.5663003,-0.6952555,-0.3661470
0.4450000,0.4450000,0.4450000,-0.5830361,-0.0454713,-3.3582256,-0.5830361,-0.7021725,-0.4366245
0.4475000,0.4475000,0.4475000,-0.5978589,-0.0445524,-3.3167578,-0.5978589,-0.7081023,-0.5018320
0.4500000,0.4500000,0.4500000,-0.6109566,-0.0437151,-3.2748874,-0.6109566,-0.7131461,-0.5619874
0.4525000,0.4525000,0.4525000,-0.6225059,-0.0429505,-3.2327096,-0.6225059,-0.7173794,-0.6173015
0.4550000,0.4550000,0.4550000,-0.6326692,-0.0422508,-3.1903148,-0.6326692,-0.7208517,-0.6679783
0.4575000,0.4575000,0.4575000,-0.6415904,-0.0416081,-3.1477878,-0.6415904,-0.7235891,-0.7142171
0.4600000,0.4600000,0.4600000,-0.6493919,-0.0410150,-3.1052080,-0.6493919,-0.7255979,-0.7562159
0.4625000,0.4625000,0.4625000,-0.6561720,-0.0404644,-3.0626488,-0.6561720,-0.7268699,-0.7941752
0.4650000,0.4650000,0.4650000,-0.6620046,-0.0399494,-3.0201776,-0.6620046,-0.7273874,-0.8283005
0.4675000,0.4675000,0.4675000,-0.6669400,-0.0394637,-2.9778563,-0.6669400,-0.7271289,-0.8588037
0.4700000,0.4700000,0.4700000,-0.6710086,-0.0390013,-2.9357407,-0.6710086,-0.7260732,-0.8859035
0.4725000,0.4725000,0.4725000,-0.6742240,-0.0385571,-2.8938815,-0.6742240,-0.7242037,-0.9098238
0.4750000,0.4750000,0.4750000,-0.6765882,-0.0381266,-2.8523240,-0.6765882,-0.7215107,-0.9307912
0.4775000,0.4775000,0.4775000,-0.6780961,-0.0377062,-2.8111084,-0.6780961,-0.7179936,-0.9490327
0.4800000,0.4800000,0.4800000,-0.6787401,-0.0372929,-2.7702705,-0.6787401,-0.7136618,-0.9647721
0.4825000,0.4825000,0.4825000,-0.6785138,-0.0368843,-2.7298416,-0.6785138,-0.7085344,-0.9782273
0.4850000,0.4850000,0.4850000,-0.6774148,-0.0364788,-2.6898492,-0.6774148,-0.7026404,-0.9896066
0.4875000,0.4875000,0.4875000,-0.6754474,-0.0360752,-2.6503168,-0.6754474,-0.6960169,-0.9991054
0.4900000,0.4900000,0.4900000,-0.6726236,-0.0356725,-2.6112647,-0.6726236,-0.6887082,-1.0069031
0.4925000,0.4925000,0.4925000,-0.6689636,-0.0352705,-2.5727101,-0.6689636,-0.6807642,-1.0131598
0.4950000,0.4950000,0.4950000,-0.6644959,-0.0348690,-2.5346670,-0.6644959,-0.6722391,-1.0180139
0.4975000,0.4975000,0.4975000,-0.6592565,-0.0344678,-2.4971473,-0.6592565,-0.6631893,-1.0215817
0.5000000,0.5000000,0.5000000,-0.6532880,-0.0340673,-2.4601603,-0.6532880,-0.6536726,-1.0239570
0.5025000,0.5025000,0.5025000,-0.6466383,-0.0336677,-2.4237132,-0.6466383,-0.6437469,-1.0252128
0.5050000,0.5050000,0.5050000,-0.6393594,-0.0332692,-2.3878112,-0.6393594,-0.6334689,-1.0254038
0.5075000,0.5075000,0.5075000,-0.6315061,-0.0328723,-2.3524581,-0.6315061,-0.6228937,-1.0245697
0.5100000,0.5100000,0.5100000,-0.6231347,-0.0324771,-2.3176558,-0.6231347,-0.6120738,-1.0227391
0.5125000,0.5125000,0.5125000,-0.6143019,-0.0320842,-2.2834051,-0.6143019,-0.6010589,-1.0199327
0.5150000,0.5150000,0.5150000,-0.6050637,-0.0316938,-2.2497055,-0.6050637,-0.5898954,-1.0161676
0.5175000,0.5175000,0.5175000,-0.5954750,-0.0313062,-2.2165553,-0.5954750,-0.5786263,-1.0114600
0.5200000,0.5200000,0.5200000,-0.5855884,-0.0309217,-2.1839521,-0.5855884,-0.5672912,-1.0058279
0.5225000,0.5225000,0.5225000,-0.5754541,-0.0305405,-2.1518924,-0.5754541,-0.5559260,-0.9992928
0.5250000,0.5250000,0.5250000,-0.5651196,-0.0301628,-2.1203721,-0.5651196,-0.5445635,-0.9918810
0.5275000,0.5275000,0.5275000,-0.5546292,-0.0297889,-2.0893864,-0.5546292,-0.5332329,-0.9836243
0.5300000,0.5300000,0.5300000,-0.5440237,-0.0294188,-2.0589301,-0.5440237,-0.5219604,-0.9745601
0.5325000,0.5325000,0.5325000,-0.5333410,-0.0290527,-2.0289973,-0.5333410,-0.5107691,-0.9647309
0.5350000,0.5350000,0.5350000,-0.5226157,-0.0286908,-1.9995817,-0.5226157,-0.4996795,-0.9541838
0.5375000,0.5375000,0.5375000,-0.5118789,-0.0283330,-1.9706769,-0.5118789,-0.4887094,-0.9429698
0.5400000,0.5400000,0.5400000,-0.5011590,-0.0279796,-1.9422758,-0.5011590,-0.4778743,-0.9311427
0.5425000,0.5425000,0.5425000,-0.4904812,-0.0276304,-1.9143715,-0.4904812,-0.4671873,-0.9187580
0.5450000,0.5450000,0.5450000,-0.4798681,-0.0272857,-1.8869565,-0.4798681,-0.4566597,-0.9058727
0.5475000,0.5475000,0.5475000,-0.4693397,-0.0269454,-1.8600234,-0.4693397,-0.4463011,-0.8925434
0.5500000,0.5500000,0.5500000,-0.4589135,-0.0266095,-1.8335645,-0.4589135,-0.4361191,-0.8788264
0.5525000,0.5525000,0.5525000,-0.4486049,-0.0262780,-1.8075722,-0.4486049,-0.4261202,-0.8647767
0.5550000,0.5550000,0.5550000,-0.4384270,-0.0259509,-1.7820387,-0.4384270,-0.4163094,-0.8504472
0.5575000,0.5575000,0.5575000,-0.4283913,-0.0256283,-1.7569561,-0.4283913,-0.4066905,-0.8358890
0.5600000,0.5600000,0.5600000,-0.4185075,-0.0253101,-1.7323166,-0.4185075,-0.3972663,-0.8211500
0.5625000,0.5625000,0.5625000,-0.4087837,-0.0249963,-1.7081124,-0.4087837,-0.3880388,-0.8062759
0.5650000,0.5650000,0.5650000,-0.3992267,-0.0246868,-1.6843356,-0.3992267,-0.3790089,-0.7913091
0.5675000,0.5675000,0.5675000,-0.3898418,-0.0243817,-1.6609784,-0.3898418,-0.3701770,-0.7762889
0.5700000,0.5700000,0.5700000,-0.3806334,-0.0240809,-1.6380332,-0.3806334,-0.3615428,-0.7612517
0.5725000,0.5725000,0.5725000,-0.3716047,-0.0237843,-1.6154922,-0.3716047,-0.3531054,-0.7462309
0.5750000,0.5750000,0.5750000,-0.3627583,-0.0234920,-1.5933478,-0.3627583,-0.3448634,-0.7312567
0.5775000,0.5775000,0.5775000,-0.3540957,-0.0232038,-1.5715925,-0.3540957,-0.3368151,-0.7163566
0.5800000,0.5800000,0.5800000,-0.3456176,-0.0229198,-1.5502188,-0.3456176,-0.3289584,-0.7015554
0.5825000,0.5825000,0.5825000,-0.3373245,-0.0226399,-1.5292194,-0.3373245,-0.3212908,-0.6868752
0.5850000,0.5850000,0.5850000,-0.3292159,-0.0223640,-1.5085870,-0.3292159,-0.3138096,-0.6723358
0.5875000,0.5875000,0.5875000,-0.3212910,-0.0220921,-1.4883145,-0.3212910,-0.3065119,-0.6579545
0.5900000,0.5900000,0.5900000,-0.3135487,-0.0218241,-1.4683948,-0.3135487,-0.2993947,-0.6437467
0.5925000,0.5925000,0.5925000,-0.3059872,-0.0215601,-1.4488209,-0.3059872,-0.2924547,-0.6297255
0.5950000,0.5950000,0.5950000,-0.2986047,-0.0212999,-1.4295862,-0.2986047,-0.2856885,-0.6159026
0.5975000,0.5975000,0.5975000,-0.2913989,-0.0210434,-1.4106837,-0.2913989,-0.2790927,-0.6022875
0.6000000,0.6000000,0.6000000,-0.2843674,-0.0207908,-1.3921070,-0.2843674,-0.2726638,-0.5888887
0.6025000,0.6025000,0.6025000,-0.2775077,-0.0205418,-1.3738496,-0.2775077,-0.2663981,-0.5757129
0.6050000,0.6050000,0.6050000,-0.2708167,-0.0202964,-1.3559051,-0.2708167,-0.2602922,-0.5627656
0.6075000,0.6075000,0.6075000,-0.2642918,-0.0200547,-1.3382673,-0.2642918,-0.2543423,-0.5500514
0.6100000,0.6100000,0.6100000,-0.2579297,-0.0198165,-1.3209300,-0.2579297,-0.2485448,-0.5375734
0.6125000,0.6125000,0.6125000,-0.2517274,-0.0195817,-1.3038873,-0.2517274,-0.2428962,-0.5253342
0.6150000,0.6150000,0.6150000,-0.2456816,-0.0193504,-1.2871333,-0.2456816,-0.2373928,-0.5133352
0.6175000,0.6175000,0.6175000,-0.2397890,-0.0191225,-1.2706621,-0.2397890,-0.2320311,-0.5015773
0.6200000,0.6200000,0.6200000,-0.2340465,-0.0188979,-1.2544682,-0.2340465,-0.2268075,-0.4900606
0.6225000,0.6225000,0.6225000,-0.2284507,-0.0186766,-1.2385459,-0.2284507,-0.2217186,-0.4787845
0.6250000,0.6250000,0.6250000,-0.2229982,-0.0184585,-1.2228900,-0.2229982,-0.2167609,-0.4677482
0.6275000,0.6275000,0.6275000,-0.2176858,-0.0182436,-1.2074950,-0.2176858,-0.2119310,-0.4569499
0.6300000,0.6300000,0.6300000,-0.2125102,-0.0180318,-1.1923558,-0.2125102,-0.2072256,-0.4463880
0.6325000,0.6325000,0.6325000,-0.2074681,-0.0178231,-1.1774673,-0.2074681,-0.2026414,-0.4360600
0.6350000,0.6350000,0.6350000,-0.2025562,-0.0176175,-1.1628244,-0.2025562,-0.1981753,-0.4259633
0.6375000,0.6375000,0.6375000,-0.1977713,-0.0174148,-1.1484224,-0.1977713,-0.1938240,-0.4160952
0.6400000,0.6400000,0.6400000,-0.1931103,-0.0172151,-1.1342563,-0.1931103,-0.1895844,-0.4064524
0.6425000,0.6425000,0.6425000,-0.1885699,-0.0170183,-1.1203217,-0.1885699,-0.1854537,-0.3970317
0.6450000,0.6450000,0.6450000,-0.1841473,-0.0168243,-1.1066138,-0.1841473,-0.1814288,-0.3878296
0.6475000,0.6475000,0.6475000,-0.1798392,-0.0166331,-1.0931282,-0.1798392,-0.1775068,-0.3788425
0.6500000,0.6500000,0.6500000,-0.1756428,-0.0164447,-1.0798606,-0.1756428,-0.1736850,-0.3700667
0.6525000,0.6525000,0.6525000,-0.1715550,-0.0162590,-1.0668067,-0.1715550,-0.1699605,-0.3614983
0.6550000,0.6550000,0.6550000,-0.1675732,-0.0160759,-1.0539622,-0.1675732,-0.1663308,-0.3531334
0.6575000,0.6575000,0.6575000,-0.1636943,-0.0158955,-1.0413230,-0.1636943,-0.1627932,-0.3449680
0.6600000,0.6600000,0.6600000,-0.1599158,-0.0157177,-1.0288853,-0.1599158,-0.1593452,-0.3369983
0.6625000,0.6625000,0.6625000,-0.1562349,-0.0155424,-1.0166450,-0.1562349,-0.1559843,-0.3292201
0.6650000,0.6650000,0.6650000,-0.1526489,-0.0153696,-1.0045983,-0.1526489,-0.1527082,-0.3216295
0.6675000,0.6675000,0.6675000,-0.1491555,-0.0151993,-0.9927414,-0.1491555,-0.1495143,-0.3142224
0.6700000,0.6700000,0.6700000,-0.1457519,-0.0150314,-0.9810708,-0.1457519,-0.1464006,-0.3069949
0.6725000,0.6725000,0.6725000,-0.1424358,-0.0148658,-0.9695828,-0.1424358,-0.1433648,-0.2999428
0.6750000,0.6750000,0.6750000,-0.1392049,-0.0147027,-0.9582738,-0.1392049,-0.1404046,-0.2930624
0.6775000,0.6775000,0.6775000,-0.1360567,-0.0145418,-0.9471405,-0.1360567,-0.1375181,-0.2863496
0.6800000,0.6800000,0.6800000,-0.1329891,-0.0143832,-0.9361796,-0.1329891,-0.1347032,-0.2798006
0.6825000,0.6825000,0.6825000,-0.1299998,-0.0142268,-0.9253876,-0.1299998,-0.1319578,-0.2734115
0.6850000,0.6850000,0.6850000,-0.1270867,-0.0140726,-0.9147615,-0.1270867,-0.1292802,-0.2671786
0.6875000,0.6875000,0.6875000,-0.1242477,-0.0139206,-0.9042981,-0.1242477,-0.1266684,-0.2610982
0.6900000,0.6900000,0.6900000,-0.1214808,-0.0137707,-0.8939942,-0.1214808,-0.1241205,-0.2551665
0.6925000,0.6925000,0.6925000,-0.1187839,-0.0136228,-0.8838469,-0.1187839,-0.1216349,-0.2493799
0.6950000,0.6950000,0.6950000,-0.1161552,-0.0134771,-0.8738533,-0.1161552,-0.1192098,-0.2437349
0.6975000,0.6975000,0.6975000,-0.1135929,-0.0133333,-0.8640105,-0.1135929,-0.1168436,-0.2382281
0.7000000,0.7000000,0.7000000,-0.1110950,-0.0131915,-0.8543156,-0.1110950,-0.1145347,-0.2328560
0.7025000,0.7025000,0.7025000,-0.1086598,-0.0130517,-0.8447660,-0.1086598,-0.1122814,-0.2276152
0.7050000,0.7050000,0.7050000,-0.1062856,-0.0129139,-0.8353588,-0.1062856,-0.1100822,-0.2225026
0.7075000,0.7075000,0.7075000,-0.1039707,-0.0127779,-0.8260915,-0.1039707,-0.1079357,-0.2175148
0.7100000,0.7100000,0.7100000,-0.1017135,-0.0126437,-0.8169616,-0.1017135,-0.1058405,-0.2126487
0.7125000,0.7125000,0.7125000,-0.0995124,-0.0125114,-0.8079664,-0.0995124,-0.1037951,-0.2079013
0.7150000,0.7150000,0.7150000,-0.0973660,-0.0123809,-0.7991035,-0.0973660,-0.1017982,-0.2032695
0.7175000,0.7175000,0.7175000,-0.0952726,-0.0122522,-0.7903706,-0.0952726,-0.0998485,-0.1987504
0.7200000,0.7200000,0.7200000,-0.0932308,-0.0121252,-0.7817651,-0.0932308,-0.0979447,-0.1943412
0.7225000,0.7225000,0.7225000,-0.0912393,-0.0120000,-0.7732849,-0.0912393,-0.0960856,-0.1900390
0.7250000,0.7250000,0.7250000,-0.0892966,-0.0118764,-0.7649276,-0.0892966,-0.0942699,-0.1858412
0.7275000,0.7275000,0.7275000,-0.0874015,-0.0117545,-0.7566911,-0.0874015,-0.0924966,-0.1817449
0.7300000,0.7300000,0.7300000,-0.0855527,-0.0116342,-0.7485731,-0.0855527,-0.0907644,-0.1777477
0.7325000,0.7325000,0.7325000,-0.0837488,-0.0115155,-0.7405716,-0.0837488,-0.0890722,-0.1738470
0.7350000,0.7350000,0.7350000,-0.0819887,-0.0113985,-0.7326844,-0.0819887,-0.0874191,-0.1700402
0.7375000,0.7375000,0.7375000,-0.0802713,-0.0112829,-0.7249096,-0.0802713,-0.0858039,-0.1663251
0.7400000,0.7400000,0.7400000,-0.0785953,-0.0111689,-0.7172451,-0.0785953,-0.0842257,-0.1626992
0.7425000,0.7425000,0.7425000,-0.0769596,-0.0110564,-0.7096890,-0.0769596,-0.0826835,-0.1591603
0.7450000,0.7450000,0.7450000,-0.0753632,-0.0109454,-0.7022393,-0.0753632,-0.0811763,-0.1557061
0.7475000,0.7475000,0.7475000,-0.0738049,-0.0108359,-0.6948943,-0.0738049,-0.0797032,-0.1523344
0.7500000,0.7500000,0.7500000,-0.0722839,-0.0107278,-0.6876520,-0.0722839,-0.0782634,-0.1490431
0.7525000,0.7525000,0.7525000,-0.0707991,-0.0106211,-0.6805108,-0.0707991,-0.0768559,-0.1458301
0.7550000,0.7550000,0.7550000,-0.0693495,-0.0105158,-0.6734687,-0.0693495,-0.0754799,-0.1426935
0.7575000,0.7575000,0.7575000,-0.0679341,-0.0104118,-0.6665242,-0.0679341,-0.0741346,-0.1396312
0.7600000,0.7600000,0.7600000,-0.0665522,-0.0103092,-0.6596755,-0.0665522,-0.0728192,-0.1366414
0.7625000,0.7625000,0.7625000,-0.0652028,-0.0102080,-0.6529210,-0.0652028,-0.0715329,-0.1337222
0.7650000,0.7650000,0.7650000,-0.0638850,-0.0101080,-0.6462590,-0.0638850,-0.0702750,-0.1308718
0.7675000,0.7675000,0.7675000,-0.0625980,-0.0100094,-0.6396880,-0.0625980,-0.0690447,-0.1280884
0.7700000,0.7700000,0.7700000,-0.0613410,-0.0099120,-0.6332064,-0.0613410,-0.0678414,-0.1253703
0.7725000,0.7725000,0.7725000,-0.0601132,-0.0098158,-0.6268127,-0.0601132,-0.0666643,-0.1227159
0.7750000,0.7750000,0.7750000,-0.0589139,-0.0097209,-0.6205054,-0.0589139,-0.0655128,-0.1201234
0.7775000,0.7775000,0.7775000,-0.0577423,-0.0096272,-0.6142831,-0.0577423,-0.0643862,-0.1175914
0.7800000,0.7800000,0.7800000,-0.0565977,-0.0095346,-0.6081443,-0.0565977,-0.0632839,-0.1151183
0.7825000,0.7825000,0.7825000,-0.0554794,-0.0094433,-0.6020877,-0.0554794,-0.0622053,-0.1127026
0.7850000,0.7850000,0.7850000,-0.0543867,-0.0093531,-0.5961118,-0.0543867,-0.0611498,-0.1103429
0.7875000,0.7875000,0.7875000,-0.0533189,-0.0092640,-0.5902152,-0.0533189,-0.0601169,-0.1080376
0.7900000,0.7900000,0.7900000,-0.0522755,-0.0091760,-0.5843968,-0.0522755,-0.0591058,-0.1057855
0.7925000,0.7925000,0.7925000,-0.0512557,-0.0090892,-0.5786552,-0.0512557,-0.0581162,-0.1035852
0.7950000,0.7950000,0.7950000,-0.0502590,-0.0090034,-0.5729891,-0.0502590,-0.0571475,-0.1014354
0.7975000,0.7975000,0.7975000,-0.0492848,-0.0089187,-0.5673972,-0.0492848,-0.0561991,-0.0993348
0.8000000,0.8000000,0.8000000,-0.0483325,-0.0088351,-0.5618785,-0.0483325,-0.0552705,-0.0972822
0.8025000,0.8025000,0.8025000,-0.0474015,-0.0087524,-0.5564316,-0.0474015,-0.0543614,-0.0952764
0.8050000,0.8050000,0.8050000,-0.0464914,-0.0086708,-0.5510554,-0.0464914,-0.0534711,-0.0933161
0.8075000,0.8075000,0.8075000,-0.0456016,-0.0085902,-0.5457487,-0.0456016,-0.0525992,-0.0914004
0.8100000,0.8100000,0.8100000,-0.0447315,-0.0085106,-0.5405105,-0.0447315,-0.0517454,-0.0895279
0.8125000,0.8125000,0.8125000,-0.0438807,-0.0084320,-0.5353396,-0.0438807,-0.0509091,-0.0876978
0.8150000,0.8150000,0.8150000,-0.0430487,-0.0083543,-0.5302349,-0.0430487,-0.0500899,-0.0859088
0.8175000,0.8175000,0.8175000,-0.0422351,-0.0082776,-0.5251954,-0.0422351,-0.0492874,-0.0841601
0.8200000,0.8200000,0.8200000,-0.0414393,-0.0082018,-0.5202201,-0.0414393,-0.0485012,-0.0824505
0.8225000,0.8225000,0.8225000,-0.0406609,-0.0081269,-0.5153078,-0.0406609,-0.0477309,-0.0807792
0.8250000,0.8250000,0.8250000,-0.0398995,-0.0080529,-0.5104577,-0.0398995,-0.0469762,-0.0791451
0.8275000,0.8275000,0.8275000,-0.0391547,-0.0079799,-0.5056687,-0.0391547,-0.0462366,-0.0775475
0.8300000,0.8300000,0.8300000,-0.0384261,-0.0079077,-0.5009399,-0.0384261,-0.0455118,-0.0759852
0.8325000,0.8325000,0.8325000,-0.0377132,-0.0078363,-0.4962702,-0.0377132,-0.0448015,-0.0744576
0.8350000,0.8350000,0.8350000,-0.0370157,-0.0077658,-0.4916589,-0.0370157,-0.0441053,-0.0729638
0.8375000,0.8375000,0.8375000,-0.0363332,-0.0076962,-0.4871050,-0.0363332,-0.0434229,-0.0715029
0.8400000,0.8400000,0.8400000,-0.0356654,-0.0076273,-0.4826075,-0.0356654,-0.0427540,-0.0700741
0.8425000,0.8425000,0.8425000,-0.0350118,-0.0075593,-0.4781656,-0.0350118,-0.0420982,-0.0686766
0.8450000,0.8450000,0.8450000,-0.0343722,-0.0074921,-0.4737785,-0.0343722,-0.0414552,-0.0673097
0.8475000,0.8475000,0.8475000,-0.0337461,-0.0074257,-0.4694452,-0.0337461,-0.0408248,-0.0659727
0.8500000,0.8500000,0.8500000,-0.0331334,-0.0073600,-0.4651651,-0.0331334,-0.0402066,-0.0646648
0.8525000,0.8525000,0.8525000,-0.0325335,-0.0072951,-0.4609372,-0.0325335,-0.0396004,-0.0633853
0.8550000,0.8550000,0.8550000,-0.0319463,-0.0072310,-0.4567607,-0.0319463,-0.0390059,-0.0621336
0.8575000,0.8575000,0.8575000,-0.0313715,-0.0071677,-0.4526350,-0.0313715,-0.0384228,-0.0609089
0.8600000,0.8600000,0.8600000,-0.0308087,-0.0071050,-0.4485591,-0.0308087,-0.0378509,-0.0597106
0.8625000,0.8625000,0.8625000,-0.0302576,-0.0070431,-0.4445324,-0.0302576,-0.0372899,-0.0585381
0.8650000,0.8650000,0.8650000,-0.0297180,-0.0069819,-0.4405540,-0.0297180,-0.0367395,-0.0573909
0.8675000,0.8675000,0.8675000,-0.0291896,-0.0069214,-0.4366234,-0.0291896,-0.0361996,-0.0562681
0.8700000,0.8700000,0.8700000,-0.0286722,-0.0068616,-0.4327397,-0.0286722,-0.0356699,-0.0551694
0.8725000,0.8725000,0.8725000,-0.0281654,-0.0068025,-0.4289022,-0.0281654,-0.0351501,-0.0540941
0.8750000,0.8750000,0.8750000,-0.0276691,-0.0067441,-0.4251104,-0.0276691,-0.0346400,-0.0530417
0.8775000,0.8775000,0.8775000,-0.0271829,-0.0066863,-0.4213634,-0.0271829,-0.0341395,-0.0520116
0.8800000,0.8800000,0.8800000,-0.0267068,-0.0066292,-0.4176606,-0.0267068,-0.0336483,-0.0510033
0.8825000,0.8825000,0.8825000,-0.0262403,-0.0065727,-0.4140014,-0.0262403,-0.0331662,-0.0500163
0.8850000,0.8850000,0.8850000,-0.0257833,-0.0065169,-0.4103851,-0.0257833,-0.0326930,-0.0490501
0.8875000,0.8875000,0.8875000,-0.0253356,-0.0064617,-0.4068111,-0.0253356,-0.0322285,-0.0481042
0.8900000,0.8900000,0.8900000,-0.0248969,-0.0064071,-0.4032788,-0.0248969,-0.0317725,-0.0471782
0.8925000,0.8925000,0.8925000,-0.0244671,-0.0063531,-0.3997876,-0.0244671,-0.0313248,-0.0462715
0.8950000,0.8950000,0.8950000,-0.0240459,-0.0062997,-0.3963368,-0.0240459,-0.0308853,-0.0453838
0.8975000,0.8975000,0.8975000,-0.0236332,-0.0062469,-0.3929259,-0.0236332,-0.0304538,-0.0445145
0.9000000,0.9000000,0.9000000,-0.0232288,-0.0061947,-0.3895543,-0.0232288,-0.0300300,-0.0436633
0.9025000,0.9025000,0.9025000,-0.0228324,-0.0061431,-0.3862214,-0.0228324,-0.0296139,-0.0428298
0.9050000,0.9050000,0.9050000,-0.0224438,-0.0060921,-0.3829267,-0.0224438,-0.0292052,-0.0420135
0.9075000,0.9075000,0.9075000,-0.0220630,-0.0060416,-0.3796696,-0.0220630,-0.0288039,-0.0412140
0.9100000,0.9100000,0.9100000,-0.0216898,-0.0059917,-0.3764497,-0.0216898,-0.0284097,-0.0404310
0.9125000,0.9125000,0.9125000,-0.0213238,-0.0059423,-0.3732662,-0.0213238,-0.0280224,-0.0396641
0.9150000,0.9150000,0.9150000,-0.0209651,-0.0058935,-0.3701188,-0.0209651,-0.0276421,-0.0389129
0.9175000,0.9175000,0.9175000,-0.0206134,-0.0058452,-0.3670070,-0.0206134,-0.0272684,-0.0381771
0.9200000,0.9200000,0.9200000,-0.0202686,-0.0057974,-0.3639302,-0.0202686,-0.0269013,-0.0374563
0.9225000,0.9225000,0.9225000,-0.0199305,-0.0057501,-0.3608879,-0.0199305,-0.0265406,-0.0367501
0.9250000,0.9250000,0.9250000,-0.0195990,-0.0057034,-0.3578796,-0.0195990,-0.0261862,-0.0360583
0.9275000,0.9275000,0.9275000,-0.0192739,-0.0056571,-0.3549049,-0.0192739,-0.0258379,-0.0353806
0.9300000,0.9300000,0.9300000,-0.0189551,-0.0056114,-0.3519633,-0.0189551,-0.0254957,-0.0347165
0.9325000,0.9325000,0.9325000,-0.0186425,-0.0055661,-0.3490544,-0.0186425,-0.0251594,-0.0340658
0.9350000,0.9350000,0.9350000,-0.0183359,-0.0055214,-0.3461776,-0.0183359,-0.0248288,-0.0334282
0.9375000,0.9375000,0.9375000,-0.0180351,-0.0054771,-0.3433326,-0.0180351,-0.0245039,-0.0328035
0.9400000,0.9400000,0.9400000,-0.0177401,-0.0054332,-0.3405188,-0.0177401,-0.0241846,-0.0321912
0.9425000,0.9425000,0.9425000,-0.0174507,-0.0053899,-0.3377359,-0.0174507,-0.0238707,-0.0315912
0.9450000,0.9450000,0.9450000,-0.0171669,-0.0053470,-0.3349835,-0.0171669,-0.0235621,-0.0310032
0.9475000,0.9475000,0.9475000,-0.0168884,-0.0053045,-0.3322611,-0.0168884,-0.0232587,-0.0304269
0.9500000,0.9500000,0.9500000,-0.0166152,-0.0052625,-0.3295683,-0.0166152,-0.0229604,-0.0298620
0.9525000,0.9525000,0.9525000,-0.0163471,-0.0052210,-0.3269047,-0.0163471,-0.0226671,-0.0293084
0.9550000,0.9550000,0.9550000,-0.0160841,-0.0051799,-0.3242699,-0.0160841,-0.0223788,-0.0287657
0.9575000,0.9575000,0.9575000,-0.0158260,-0.0051392,-0.3216636,-0.0158260,-0.0220952,-0.0282337
0.9600000,0.9600000,0.9600000,-0.0155727,-0.0050989,-0.3190852,-0.0155727,-0.0218163,-0.0277122
0.9625000,0.9625000,0.9625000,-0.0153242,-0.0050591,-0.3165346,-0.0153242,-0.0215421,-0.0272009
0.9650000,0.9650000,0.9650000,-0.0150803,-0.0050196,-0.3140112,-0.0150803,-0.0212723,-0.0266997
0.9675000,0.9675000,0.9675000,-0.0148409,-0.0049806,-0.3115148,-0.0148409,-0.0210070,-0.0262082
0.9700000,0.9700000,0.9700000,-0.0146060,-0.0049420,-0.3090449,-0.0146060,-0.0207460,-0.0257264
0.9725000,0.9725000,0.9725000,-0.0143754,-0.0049038,-0.3066012,-0.0143754,-0.0204893,-0.0252540
0.9750000,0.9750000,0.9750000,-0.0141490,-0.0048659,-0.3041833,-0.0141490,-0.0202368,-0.0247908
0.9775000,0.9775000,0.9775000,-0.0139268,-0.0048285,-0.3017910,-0.0139268,-0.0199883,-0.0243365
0.9800000,0.9800000,0.9800000,-0.0137087,-0.0047914,-0.2994239,-0.0137087,-0.0197438,-0.0238911
0.9825000,0.9825000,0.9825000,-0.0134946,-0.0047548,-0.2970816,-0.0134946,-0.0195033,-0.0234542
0.9850000,0.9850000,0.9850000,-0.0132843,-0.0047184,-0.2947638,-0.0132843,-0.0192667,-0.0230258
0.9875000,0.9875000,0.9875000,-0.0130779,-0.0046825,-0.2924703,-0.0130779,-0.0190338,-0.0226057
0.9900000,0.9900000,0.9900000,-0.0128752,-0.0046469,-0.2902006,-0.0128752,-0.0188046,-0.0221936
0.9925000,0.9925000,0.9925000,-0.0126762,-0.0046117,-0.2879544,-0.0126762,-0.0185791,-0.0217894
0.9950000,0.9950000,0.9950000,-0.0124808,-0.0045768,-0.2857316,-0.0124808,-0.0183571,-0.0213930
0.9975000,0.9975000,0.9975000,-0.0122889,-0.0045423,-0.2835317,-0.0122889,-0.0181386,-0.0210041
1.0000000,1.0000000,1.0000000,-0.0121004,-0.0045082,-0.2813544,-0.0121004,-0.0179236,-0.0206227
1.0025000,1.0025000,1.0025000,-0.0119153,-0.0044743,-0.2791995,-0.0119153,-0.0177119,-0.0202485
1.0050000,1.0050000,1.0050000,-0.0117335,-0.0044409,-0.2770668,-0.0117335,-0.0175035,-0.0198814
1.0075000,1.0075000,1.0075000,-0.0115550,-0.0044077,-0.2749558,-0.0115550,-0.0172984,-0.0195212
1.0100000,1.0100000,1.0100000,-0.0113796,-0.0043749,-0.2728663,-0.0113796,-0.0170964,-0.0191679
1.0125000,1.0125000,1.0125000,-0.0112073,-0.0043424,-0.2707981,-0.0112073,-0.0168976,-0.0188212
1.0150000,1.0150000,1.0150000,-0.0110381,-0.0043102,-0.2687508,-0.0110381,-0.0167018,-0.0184811
1.0175000,1.0175000,1.0175000,-0.0108718,-0.0042783,-0.2667242,-0.0108718,-0.0165090,-0.0181474
1.0200000,1.0200000,1.0200000,-0.0107085,-0.0042468,-0.2647181,-0.0107085,-0.0163192,-0.0178199
1.0225000,1.0225000,1.0225000,-0.0105480,-0.0042155,-0.2627322,-0.0105480,-0.0161322,-0.0174986
1.0250000,1.0250000,1.0250000,-0.0103904,-0.0041846,-0.2607662,-0.0103904,-0.0159481,-0.0171833
1.0275000,1.0275000,1.0275000,-0.0102355,-0.0041540,-0.2588199,-0.0102355,-0.0157668,-0.0168738
1.0300000,1.0300000,1.0300000,-0.0100832,-0.0041236,-0.2568930,-0.0100832,-0.0155882,-0.0165701
1.0325000,1.0325000,1.0325000,-0.0099337,-0.0040936,-0.2549853,-0.0099337,-0.0154123,-0.0162721
1.0350000,1.0350000,1.0350000,-0.0097867,-0.0040639,-0.2530966,-0.0097867,-0.0152390,-0.0159796
1.0375000,1.0375000,1.0375000,-0.0096422,-0.0040344,-0.2512266,-0.0096422,-0.0150683,-0.0156925
1.0400000,1.0400000,1.0400000,-0.0095003,-0.0040052,-0.2493750,-0.0095003,-0.0149002,-0.0154107
1.0425000,1.0425000,1.0425000,-0.0093608,-0.0039763,-0.2475417,-0.0093608,-0.0147346,-0.0151342
1.0450000,1.0450000,1.0450000,-0.0092236,-0.0039477,-0.2457265,-0.0092236,-0.0145714,-0.0148627
1.0475000,1.0475000,1.0475000,-0.0090888,-0.0039194,-0.2439290,-0.0090888,-0.0144106,-0.0145962
1.0500000,1.0500000,1.0500000,-0.0089563,-0.0038913,-0.2421491,-0.0089563,-0.0142521,-0.0143346
1.0525000,1.0525000,1.0525000,-0.0088261,-0.0038635,-0.2403866,-0.0088261,-0.0140960,-0.0140778
1.0550000,1.0550000,1.0550000,-0.0086981,-0.0038359,-0.2386413,-0.0086981,-0.0139422,-0.0138257
1.0575000,1.0575000,1.0575000,-0.0085722,-0.0038086,-0.2369129,-0.0085722,-0.0137906,-0.0135782
1.0600000,1.0600000,1.0600000,-0.0084485,-0.0037816,-0.2352012,-0.0084485,-0.0136412,-0.0133352
1.0625000,1.0625000,1.0625000,-0.0083268,-0.0037548,-0.2335061,-0.0083268,-0.0134940,-0.0130966
1.0650000,1.0650000,1.0650000,-0.0082072,-0.0037283,-0.2318273,-0.0082072,-0.0133488,-0.0128624
1.0675000,1.0675000,1.0675000,-0.0080896,-0.0037021,-0.2301647,-0.0080896,-0.0132058,-0.0126324
1.0700000,1.0700000,1.0700000,-0.0079740,-0.0036760,-0.2285180,-0.0079740,-0.0130648,-0.0124065
1.0725000,1.0725000,1.0725000,-0.0078603,-0.0036503,-0.2268871,-0.0078603,-0.0129258,-0.0121848
1.0750000,1.0750000,1.0750000,-0.0077485,-0.0036247,-0.2252717,-0.0077485,-0.0127888,-0.0119670
1.0775000,1.0775000,1.0775000,-0.0076385,-0.0035994,-0.2236718,-0.0076385,-0.0126538,-0.0117532
1.0800000,1.0800000,1.0800000,-0.0075304,-0.0035744,-0.2220870,-0.0075304,-0.0125206,-0.0115432
1.0825000,1.0825000,1.0825000,-0.0074241,-0.0035495,-0.2205172,-0.0074241,-0.0123893,-0.0113370
1.0850000,1.0850000,1.0850000,-0.0073195,-0.0035249,-0.2189623,-0.0073195,-0.0122599,-0.0111345
1.0875000,1.0875000,1.0875000,-0.0072166,-0.0035005,-0.2174220,-0.0072166,-0.0121322,-0.0109356
1.0900000,1.0900000,1.0900000,-0.0071154,-0.0034764,-0.2158962,-0.0071154,-0.0120064,-0.0107402
1.0925000,1.0925000,1.0925000,-0.0070159,-0.0034525,-0.2143847,-0.0070159,-0.0118823,-0.0105483
1.0950000,1.0950000,1.0950000,-0.0069180,-0.0034287,-0.2128874,-0.0069180,-0.0117599,-0.0103599
1.0975000,1.0975000,1.0975000,-0.0068216,-0.0034053,-0.2114041,-0.0068216,-0.0116392,-0.0101748
1.1000000,1.1000000,1.1000000,-0.0067269,-0.0033820,-0.2099346,-0.0067269,-0.0115202,-0.0099930
1.1025000,1.1025000,1.1025000,-0.0066337,-0.0033589,-0.2084787,-0.0066337,-0.0114028,-0.0098144
1.1050000,1.1050000,1.1050000,-0.0065420,-0.0033360,-0.2070364,-0.0065420,-0.0112870,-0.0096389
1.1075000,1.1075000,1.1075000,-0.0064518,-0.0033134,-0.2056074,-0.0064518,-0.0111728,-0.0094666
1.1100000,1.1100000,1.1100000,-0.0063630,-0.0032909,-0.2041915,-0.0063630,-0.0110601,-0.0092973
1.1125000,1.1125000,1.1125000,-0.0062756,-0.0032687,-0.2027888,-0.0062756,-0.0109490,-0.0091309
1.1150000,1.1150000,1.1150000,-0.0061897,-0.0032467,-0.2013989,-0.0061897,-0.0108394,-0.0089675
1.1175000,1.1175000,1.1175000,-0.0061051,-0.0032248,-0.2000217,-0.0061051,-0.0107312,-0.0088070
1.1200000,1.1200000,1.1200000,-0.0060219,-0.0032032,-0.1986571,-0.0060219,-0.0106245,-0.0086493
1.1225000,1.1225000,1.1225000,-0.0059400,-0.0031817,-0.1973050,-0.0059400,-0.0105193,-0.0084943
1.1250000,1.1250000,1.1250000,-0.0058594,-0.0031604,-0.1959651,-0.0058594,-0.0104154,-0.0083421
1.1275000,1.1275000,1.1275000,-0.0057801,-0.0031393,-0.1946375,-0.0057801,-0.0103129,-0.0081925
1.1300000,1.1300000,1.1300000,-0.0057020,-0.0031185,-0.1933218,-0.0057020,-0.0102118,-0.0080455
1.1325000,1.1325000,1.1325000,-0.0056251,-0.0030977,-0.1920181,-0.0056251,-0.0101120,-0.0079011
1.1350000,1.1350000,1.1350000,-0.0055495,-0.0030772,-0.1907261,-0.0055495,-0.0100135,-0.0077591
1.1375000,1.1375000,1.1375000,-0.0054751,-0.0030569,-0.1894457,-0.0054751,-0.0099163,-0.0076197
1.1400000,1.1400000,1.1400000,-0.0054018,-0.0030367,-0.1881768,-0.0054018,-0.0098204,-0.0074826
1.1425000,1.1425000,1.1425000,-0.0053297,-0.0030167,-0.1869193,-0.0053297,-0.0097257,-0.0073479
1.1450000,1.1450000,1.1450000,-0.0052586,-0.0029969,-0.1856730,-0.0052586,-0.0096323,-0.0072156
1.1475000,1.1475000,1.1475000,-0.0051887,-0.0029773,-0.1844379,-0.0051887,-0.0095401,-0.0070855
1.1500000,1.1500000,1.1500000,-0.0051199,-0.0029578,-0.1832137,-0.0051199,-0.0094490,-0.0069577
1.1525000,1.1525000,1.1525000,-0.0050522,-0.0029385,-0.1820003,-0.0050522,-0.0093592,-0.0068321
1.1550000,1.1550000,1.1550000,-0.0049854,-0.0029194,-0.1807977,-0.0049854,-0.0092705,-0.0067086
1.1575000,1.1575000,1.1575000,-0.0049198,-0.0029004,-0.1796058,-0.0049198,-0.0091829,-0.0065872
1.1600000,1.1600000,1.1600000,-0.0048551,-0.0028816,-0.1784243,-0.0048551,-0.0090965,-0.0064679
1.1625000,1.1625000,1.1625000,-0.0047914,-0.0028630,-0.1772532,-0.0047914,-0.0090111,-0.0063507
1.1650000,1.1650000,1.1650000,-0.0047287,-0.0028445,-0.1760924,-0.0047287,-0.0089269,-0.0062355
1.1675000,1.1675000,1.1675000,-0.0046670,-0.0028262,-0.1749418,-0.0046670,-0.0088437,-0.0061222
1.1700000,1.1700000,1.1700000,-0.0046061,-0.0028080,-0.1738012,-0.0046061,-0.0087615,-0.0060109
1.1725000,1.1725000,1.1725000,-0.0045463,-0.0027900,-0.1726705,-0.0045463,-0.0086804,-0.0059014
1.1750000,1.1750000,1.1750000,-0.0044873,-0.0027722,-0.1715497,-0.0044873,-0.0086003,-0.0057938
1.1775000,1.1775000,1.1775000,-0.0044292,-0.0027545,-0.1704386,-0.0044292,-0.0085213,-0.0056881
1.1800000,1.1800000,1.1800000,-0.0043720,-0.0027369,-0.1693371,-0.0043720,-0.0084431,-0.0055841
1.1825000,1.1825000,1.1825000,-0.0043157,-0.0027195,-0.1682451,-0.0043157,-0.0083660,-0.0054819
1.1850000,1.1850000,1.1850000,-0.0042602,-0.0027023,-0.1671626,-0.0042602,-0.0082898,-0.0053814
1.1875000,1.1875000,1.1875000,-0.0042055,-0.0026851,-0.1660893,-0.0042055,-0.0082146,-0.0052826
1.1900000,1.1900000,1.1900000,-0.0041517,-0.0026682,-0.1650253,-0.0041517,-0.0081403,-0.0051855
1.1925000,1.1925000,1.1925000,-0.0040986,-0.0026514,-0.1639704,-0.0040986,-0.0080669,-0.0050900
1.1950000,1.1950000,1.1950000,-0.0040464,-0.0026347,-0.1629244,-0.0040464,-0.0079944,-0.0049962
1.1975000,1.1975000,1.1975000,-0.0039949,-0.0026181,-0.1618874,-0.0039949,-0.0079228,-0.0049039
1.2000000,1.2000000,1.2000000,-0.0039442,-0.0026017,-0.1608593,-0.0039442,-0.0078520,-0.0048131
1.2025000,1.2025000,1.2025000,-0.0038943,-0.0025855,-0.1598398,-0.0038943,-0.0077822,-0.0047239
1.2050000,1.2050000,1.2050000,-0.0038450,-0.0025693,-0.1588290,-0.0038450,-0.0077131,-0.0046362
1.2075000,1.2075000,1.2075000,-0.0037966,-0.0025533,-0.1578267,-0.0037966,-0.0076449,-0.0045499
1.2100000,1.2100000,1.2100000,-0.0037488,-0.0025375,-0.1568329,-0.0037488,-0.0075775,-0.0044651
1.2125000,1.2125000,1.2125000,-0.0037017,-0.0025217,-0.1558474,-0.0037017,-0.0075109,-0.0043817
1.2150000,1.2150000,1.2150000,-0.0036553,-0.0025061,-0.1548702,-0.0036553,-0.0074452,-0.0042997
1.2175000,1.2175000,1.2175000,-0.0036096,-0.0024907,-0.1539012,-0.0036096,-0.0073802,-0.0042190
1.2200000,1.2200000,1.2200000,-0.0035646,-0.0024753,-0.1529403,-0.0035646,-0.0073159,-0.0041397
1.2225000,1.2225000,1.2225000,-0.0035202,-0.0024601,-0.1519875,-0.0035202,-0.0072525,-0.0040618
1.2250000,1.2250000,1.2250000,-0.0034764,-0.0024450,-0.1510425,-0.0034764,-0.0071898,-0.0039851
1.2275000,1.2275000,1.2275000,-0.0034333,-0.0024300,-0.1501054,-0.0034333,-0.0071278,-0.0039097
1.2300000,1.2300000,1.2300000,-0.0033909,-0.0024152,-0.1491761,-0.0033909,-0.0070665,-0.0038355
1.2325000,1.2325000,1.2325000,-0.0033490,-0.0024004,-0.1482544,-0.0033490,-0.0070060,-0.0037625
1.2350000,1.2350000,1.2350000,-0.0033077,-0.0023858,-0.1473404,-0.0033077,-0.0069462,-0.0036908
1.2375000,1.2375000,1.2375000,-0.0032671,-0.0023713,-0.1464339,-0.0032671,-0.0068871,-0.0036203
1.2400000,1.2400000,1.2400000,-0.0032270,-0.0023570,-0.1455348,-0.0032270,-0.0068286,-0.0035509
1.2425000,1.2425000,1.2425000,-0.0031875,-0.0023427,-0.1446432,-0.0031875,-0.0067709,-0.0034826
1.2450000,1.2450000,1.2450000,-0.0031485,-0.0023286,-0.1437588,-0.0031485,-0.0067138,-0.0034155
1.2475000,1.2475000,1.2475000,-0.0031101,-0.0023145,-0.1428816,-0.0031101,-0.0066573,-0.0033495
1.2500000,1.2500000,1.2500000,-0.0030723,-0.0023006,-0.1420116,-0.0030723,-0.0066015,-0.0032846
1.2525000,1.2525000,1.2525000,-0.0030350,-0.0022868,-0.1411487,-0.0030350,-0.0065464,-0.0032207
1.2550000,1.2550000,1.2550000,-0.0029982,-0.0022731,-0.1402928,-0.0029982,-0.0064919,-0.0031579
1.2575000,1.2575000,1.2575000,-0.0029619,-0.0022595,-0.1394438,-0.0029619,-0.0064380,-0.0030961
1.2600000,1.2600000,1.2600000,-0.0029262,-0.0022460,-0.1386017,-0.0029262,-0.0063847,-0.0030354
1.2625000,1.2625000,1.2625000,-0.0028909,-0.0022327,-0.1377664,-0.0028909,-0.0063320,-0.0029756
1.2650000,1.2650000,1.2650000,-0.0028562,-0.0022194,-0.1369378,-0.0028562,-0.0062799,-0.0029168
1.2675000,1.2675000,1.2675000,-0.0028219,-0.0022062,-0.1361158,-0.0028219,-0.0062284,-0.0028590
1.2700000,1.2700000,1.2700000,-0.0027881,-0.0021932,-0.1353005,-0.0027881,-0.0061775,-0.0028021
1.2725000,1.2725000,1.2725000,-0.0027548,-0.0021802,-0.1344916,-0.0027548,-0.0061271,-0.0027461
1.2750000,1.2750000,1.2750000,-0.0027220,-0.0021674,-0.1336893,-0.0027220,-0.0060773,-0.0026911
1.2775000,1.2775000,1.2775000,-0.0026896,-0.0021546,-0.1328933,-0.0026896,-0.0060281,-0.0026369
1.2800000,1.2800000,1.2800000,-0.0026577,-0.0021420,-0.1321037,-0.0026577,-0.0059794,-0.0025837
1.2825000,1.2825000,1.2825000,-0.0026262,-0.0021294,-0.1313203,-0.0026262,-0.0059312,-0.0025313
1.2850000,1.2850000,1.2850000,-0.0025951,-0.0021170,-0.1305431,-0.0025951,-0.0058836,-0.0024797
1.2875000,1.2875000,1.2875000,-0.0025645,-0.0021046,-0.1297721,-0.0025645,-0.0058365,-0.0024290
1.2900000,1.2900000,1.2900000,-0.0025343,-0.0020923,-0.1290072,-0.0025343,-0.0057899,-0.0023791
1.2925000,1.2925000,1.2925000,-0.0025045,-0.0020802,-0.1282482,-0.0025045,-0.0057438,-0.0023300
1.2950000,1.2950000,1.2950000,-0.0024751,-0.0020681,-0.1274953,-0.0024751,-0.0056983,-0.0022817
1.2975000,1.2975000,1.2975000,-0.0024461,-0.0020561,-0.1267482,-0.0024461,-0.0056532,-0.0022342
1.3000000,1.3000000,1.3000000,-0.0024175,-0.0020442,-0.1260070,-0.0024175,-0.0056086,-0.0021875
1.3025000,1.3025000,1.3025000,-0.0023893,-0.0020324,-0.1252716,-0.0023893,-0.0055645,-0.0021415
1.3050000,1.3050000,1.3050000,-0.0023615,-0.0020207,-0.1245420,-0.0023615,-0.0055209,-0.0020963
1.3075000,1.3075000,1.3075000,-0.0023341,-0.0020091,-0.1238179,-0.0023341,-0.0054777,-0.0020518
1.3100000,1.3100000,1.3100000,-0.0023070,-0.0019976,-0.1230996,-0.0023070,-0.0054350,-0.0020080
1.3125000,1.3125000,1.3125000,-0.0022803,-0.0019862,-0.1223868,-0.0022803,-0.0053928,-0.0019649
1.3150000,1.3150000,1.3150000,-0.0022540,-0.0019748,-0.1216795,-0.0022540,-0.0053510,-0.0019226
1.3175000,1.3175000,1.3175000,-0.0022280,-0.0019635,-0.1209776,-0.0022280,-0.0053096,-0.0018809
1.3200000,1.3200000,1.3200000,-0.0022023,-0.0019524,-0.1202812,-0.0022023,-0.0052687,-0.0018398
1.3225000,1.3225000,1.3225000,-0.0021771,-0.0019413,-0.1195901,-0.0021771,-0.0052282,-0.0017995
1.3250000,1.3250000,1.3250000,-0.0021521,-0.0019303,-0.1189043,-0.0021521,-0.0051882,-0.0017597
1.3275000,1.3275000,1.3275000,-0.0021275,-0.0019193,-0.1182238,-0.0021275,-0.0051486,-0.0017207
1.3300000,1.3300000,1.3300000,-0.0021032,-0.0019085,-0.1175485,-0.0021032,-0.0051094,-0.0016822
1.3325000,1.3325000,1.3325000,-0.0020792,-0.0018977,-0.1168783,-0.0020792,-0.0050706,-0.0016444
1.3350000,1.3350000,1.3350000,-0.0020556,-0.0018870,-0.1162133,-0.0020556,-0.0050322,-0.0016072
1.3375000,1.3375000,1.3375000,-0.0020323,-0.0018764,-0.1155533,-0.0020323,-0.0049942,-0.0015706
1.3400000,1.3400000,1.3400000,-0.0020092,-0.0018659,-0.1148983,-0.0020092,-0.0049566,-0.0015345
1.3425000,1.3425000,1.3425000,-0.0019865,-0.0018555,-0.1142482,-0.0019865,-0.0049194,-0.0014991
1.3450000,1.3450000,1.3450000,-0.0019641,-0.0018451,-0.1136031,-0.0019641,-0.0048825,-0.0014642
1.3475000,1.3475000,1.3475000,-0.0019420,-0.0018348,-0.1129628,-0.0019420,-0.0048461,-0.0014298
1.3500000,1.3500000,1.3500000,-0.0019201,-0.0018246,-0.1123274,-0.0019201,-0.0048100,-0.0013961
1.3525000,1.3525000,1.3525000,-0.0018986,-0.0018145,-0.1116967,-0.0018986,-0.0047743,-0.0013628
1.3550000,1.3550000,1.3550000,-0.0018773,-0.0018044,-0.1110707,-0.0018773,-0.0047390,-0.0013301
1.3575000,1.3575000,1.3575000,-0.0018564,-0.0017944,-0.1104495,-0.0018564,-0.0047040,-0.0012979
1.3600000,1.3600000,1.3600000,-0.0018356,-0.0017845,-0.1098329,-0.0018356,-0.0046694,-0.0012663
1.3625000,1.3625000,1.3625000,-0.0018152,-0.0017747,-0.1092208,-0.0018152,-0.0046351,-0.0012351
1.3650000,1.3650000,1.3650000,-0.0017950,-0.0017649,-0.1086134,-0.0017950,-0.0046012,-0.0012045
1.3675000,1.3675000,1.3675000,-0.0017751,-0.0017552,-0.1080104,-0.0017751,-0.0045676,-0.0011743
1.3700000,1.3700000,1.3700000,-0.0017554,-0.0017456,-0.1074119,-0.0017554,-0.0045344,-0.0011446
1.3725000,1.3725000,1.3725000,-0.0017360,-0.0017360,-0.1068179,-0.0017360,-0.0045015,-0.0011154
1.3750000,1.3750000,1.3750000,-0.0017169,-0.0017265,-0.1062282,-0.0017169,-0.0044689,-0.0010867
1.3775000,1.3775000,1.3775000,-0.0016980,-0.0017171,-0.1056429,-0.0016980,-0.0044366,-0.0010584
1.3800000,1.3800000,1.3800000,-0.0016793,-0.0017077,-0.1050619,-0.0016793,-0.0044047,-0.0010305
1.3825000,1.3825000,1.3825000,-0.0016609,-0.0016985,-0.1044851,-0.0016609,-0.0043731,-0.0010031
1.3850000,1.3850000,1.3850000,-0.0016427,-0.0016893,-0.1039126,-0.0016427,-0.0043417,-0.0009762
1.3875000,1.3875000,1.3875000,-0.0016248,-0.0016801,-0.1033443,-0.0016248,-0.0043108,-0.0009497
1.3900000,1.3900000,1.3900000,-0.0016070,-0.0016710,-0.1027801,-0.0016070,-0.0042801,-0.0009236
1.3925000,1.3925000,1.3925000,-0.0015895,-0.0016620,-0.1022200,-0.0015895,-0.0042497,-0.0008979
1.3950000,1.3950000,1.3950000,-0.0015722,-0.0016531,-0.1016640,-0.0015722,-0.0042196,-0.0008726
1.3975000,1.3975000,1.3975000,-0.0015552,-0.0016442,-0.1011121,-0.0015552,-0.0041898,-0.0008478
1.4000000,1.4000000,1.4000000,-0.0015383,-0.0016353,-0.1005641,-0.0015383,-0.0041603,-0.0008233
1.4025000,1.4025000,1.4025000,-0.0015217,-0.0016266,-0.1000201,-0.0015217,-0.0041310,-0.0007992
1.4050000,1.4050000,1.4050000,-0.0015053,-0.0016179,-0.0994801,-0.0015053,-0.0041021,-0.0007755
1.4075000,1.4075000,1.4075000,-0.0014891,-0.0016092,-0.0989439,-0.0014891,-0.0040735,-0.0007522
1.4100000,1.4100000,1.4100000,-0.0014731,-0.0016007,-0.0984116,-0.0014731,-0.0040451,-0.0007293
1.4125000,1.4125000,1.4125000,-0.0014573,-0.0015922,-0.0978831,-0.0014573,-0.0040170,-0.0007067
1.4150000,1.4150000,1.4150000,-0.0014416,-0.0015837,-0.0973584,-0.0014416,-0.0039891,-0.0006845
1.4175000,1.4175000,1.4175000,-0.0014262,-0.0015753,-0.0968375,-0.0014262,-0.0039615,-0.0006627
1.4200000,1.4200000,1.4200000,-0.0014110,-0.0015670,-0.0963203,-0.0014110,-0.0039342,-0.0006411
1.4225000,1.4225000,1.4225000,-0.0013960,-0.0015587,-0.0958068,-0.0013960,-0.0039072,-0.0006200
1.4250000,1.4250000,1.4250000,-0.0013811,-0.0015505,-0.0952969,-0.0013811,-0.0038804,-0.0005992
1.4275000,1.4275000,1.4275000,-0.0013665,-0.0015423,-0.0947906,-0.0013665,-0.0038539,-0.0005787
1.4300000,1.4300000,1.4300000,-0.0013520,-0.0015342,-0.0942880,-0.0013520,-0.0038276,-0.0005585
1.4325000,1.4325000,1.4325000,-0.0013377,-0.0015262,-0.0937889,-0.0013377,-0.0038015,-0.0005387
1.4350000,1.4350000,1.4350000,-0.0013236,-0.0015182,-0.0932933,-0.0013236,-0.0037757,-0.0005191
1.4375000,1.4375000,1.4375000,-0.0013096,-0.0015102,-0.0928012,-0.0013096,-0.0037502,-0.0004999
1.4400000,1.4400000,1.4400000,-0.0012958,-0.0015024,-0.0923126,-0.0012958,-0.0037249,-0.0004810
1.4425000,1.4425000,1.4425000,-0.0012822,-0.0014945,-0.0918274,-0.0012822,-0.0036998,-0.0004624
1.4450000,1.4450000,1.4450000,-0.0012688,-0.0014868,-0.0913457,-0.0012688,-0.0036749,-0.0004441
1.4475000,1.4475000,1.4475000,-0.0012555,-0.0014791,-0.0908673,-0.0012555,-0.0036503,-0.0004261
1.4500000,1.4500000,1.4500000,-0.0012424,-0.0014714,-0.0903922,-0.0012424,-0.0036259,-0.0004084
1.4525000,1.4525000,1.4525000,-0.0012294,-0.0014638,-0.0899205,-0.0012294,-0.0036018,-0.0003910
1.4550000,1.4550000,1.4550000,-0.0012166,-0.0014562,-0.0894520,-0.0012166,-0.0035778,-0.0003738
1.4575000,1.4575000,1.4575000,-0.0012040,-0.0014487,-0.0889869,-0.0012040,-0.0035541,-0.0003570
1.4600000,1.4600000,1.4600000,-0.0011915,-0.0014413,-0.0885249,-0.0011915,-0.0035306,-0.0003403
1.4625000,1.4625000,1.4625000,-0.0011791,-0.0014339,-0.0880661,-0.0011791,-0.0035073,-0.0003240
1.4650000,1.4650000,1.4650000,-0.0011669,-0.0014265,-0.0876105,-0.0011669,-0.0034843,-0.0003079
1.4675000,1.4675000,1.4675000,-0.0011549,-0.0014192,-0.0871581,-0.0011549,-0.0034614,-0.0002921
1.4700000,1.4700000,1.4700000,-0.0011430,-0.0014120,-0.0867088,-0.0011430,-0.0034387,-0.0002766
1.4725000,1.4725000,1.4725000,-0.0011312,-0.0014048,-0.0862626,-0.0011312,-0.0034163,-0.0002613
1.4750000,1.4750000,1.4750000,-0.0011196,-0.0013976,-0.0858194,-0.0011196,-0.0033940,-0.0002462
1.4775000,1.4775000,1.4775000,-0.0011082,-0.0013905,-0.0853793,-0.0011082,-0.0033720,-0.0002314
1.4800000,1.4800000,1.4800000,-0.0010968,-0.0013834,-0.0849422,-0.0010968,-0.0033501,-0.0002168
1.4825000,1.4825000,1.4825000,-0.0010856,-0.0013764,-0.0845081,-0.0010856,-0.0033285,-0.0002024
1.4850000,1.4850000,1.4850000,-0.0010745,-0.0013695,-0.0840769,-0.0010745,-0.0033070,-0.0001883
1.4875000,1.4875000,1.4875000,-0.0010636,-0.0013625,-0.0836487,-0.0010636,-0.0032858,-0.0001745
1.4900000,1.4900000,1.4900000,-0.0010528,-0.0013557,-0.0832234,-0.0010528,-0.0032647,-0.0001608
1.4925000,1.4925000,1.4925000,-0.0010421,-0.0013489,-0.0828009,-0.0010421,-0.0032438,-0.0001474
1.4950000,1.4950000,1.4950000,-0.0010316,-0.0013421,-0.0823814,-0.0010316,-0.0032231,-0.0001341
1.4975000,1.4975000,1.4975000,-0.0010211,-0.0013353,-0.0819646,-0.0010211,-0.0032026,-0.0001211
1.5000000,1.5000000,1.5000000,-0.0010108,-0.0013287,-0.0815507,-0.0010108,-0.0031822,-0.0001083
1.5025000,1.5025000,1.5025000,-0.0010007,-0.0013220,-0.0811396,-0.0010007,-0.0031621,-0.0000958
1.5050000,1.5050000,1.5050000,-0.0009906,-0.0013154,-0.0807313,-0.0009906,-0.0031421,-0.0000834
1.5075000,1.5075000,1.5075000,-0.0009806,-0.0013089,-0.0803257,-0.0009806,-0.0031223,-0.0000712
1.5100000,1.5100000,1.5100000,-0.0009708,-0.0013024,-0.0799228,-0.0009708,-0.0031026,-0.0000592
1.5125000,1.5125000,1.5125000,-0.0009611,-0.0012959,-0.0795226,-0.0009611,-0.0030832,-0.0000475
1.5150000,1.5150000,1.5150000,-0.0009515,-0.0012895,-0.0791251,-0.0009515,-0.0030639,-0.0000359
1.5175000,1.5175000,1.5175000,-0.0009420,-0.0012831,-0.0787302,-0.0009420,-0.0030447,-0.0000245
1.5200000,1.5200000,1.5200000,-0.0009326,-0.0012767,-0.0783380,-0.0009326,-0.0030258,-0.0000133
1.5225000,1.5225000,1.5225000,-0.0009234,-0.0012704,-0.0779483,-0.0009234,-0.0030070,-0.0000022
1.5250000,1.5250000,1.5250000,-0.0009142,-0.0012642,-0.0775613,-0.0009142,-0.0029883,0.0000086
1.5275000,1.5275000,1.5275000,-0.0009051,-0.0012580,-0.0771768,-0.0009051,-0.0029698,0.0000193
1.5300000,1.5300000,1.5300000,-0.0008962,-0.0012518,-0.0767949,-0.0008962,-0.0029515,0.0000298
1.5325000,1.5325000,1.5325000,-0.0008873,-0.0012457,-0.0764155,-0.0008873,-0.0029334,0.0000401
1.5350000,1.5350000,1.5350000,-0.0008786,-0.0012396,-0.0760386,-0.0008786,-0.0029154,0.0000502
1.5375000,1.5375000,1.5375000,-0.0008699,-0.0012335,-0.0756642,-0.0008699,-0.0028975,0.0000602
1.5400000,1.5400000,1.5400000,-0.0008614,-0.0012275,-0.0752922,-0.0008614,-0.0028798,0.0000700
1.5425000,1.5425000,1.5425000,-0.0008530,-0.0012215,-0.0749227,-0.0008530,-0.0028622,0.0000797
1.5450000,1.5450000,1.5450000,-0.0008446,-0.0012156,-0.0745556,-0.0008446,-0.0028448,0.0000892
1.5475000,1.5475000,1.5475000,-0.0008363,-0.0012097,-0.0741909,-0.0008363,-0.0028276,0.0000985
1.5500000,1.5500000,1.5500000,-0.0008282,-0.0012038,-0.0738286,-0.0008282,-0.0028105,0.0001077
1.5525000,1.5525000,1.5525000,-0.0008201,-0.0011980,-0.0734686,-0.0008201,-0.0027935,0.0001167
1.5550000,1.5550000,1.5550000,-0.0008121,-0.0011922,-0.0731110,-0.0008121,-0.0027767,0.0001255
1.5575000,1.5575000,1.5575000,-0.0008042,-0.0011865,-0.0727557,-0.0008042,-0.0027600,0.0001343
1.5600000,1.5600000,1.5600000,-0.0007964,-0.0011807,-0.0724027,-0.0007964,-0.0027434,0.0001428
1.5625000,1.5625000,1.5625000,-0.0007887,-0.0011751,-0.0720520,-0.0007887,-0.0027270,0.0001513
1.5650000,1.5650000,1.5650000,-0.0007811,-0.0011694,-0.0717036,-0.0007811,-0.0027107,0.0001596
1.5675000,1.5675000,1.5675000,-0.0007736,-0.0011638,-0.0713574,-0.0007736,-0.0026946,0.0001677
1.5700000,1.5700000,1.5700000,-0.0007661,-0.0011583,-0.0710134,-0.0007661,-0.0026786,0.0001757
1.5725000,1.5725000,1.5725000,-0.0007588,-0.0011527,-0.0706717,-0.0007588,-0.0026627,0.0001836
1.5750000,1.5750000,1.5750000,-0.0007515,-0.0011472,-0.0703321,-0.0007515,-0.0026470,0.0001913
1.5775000,1.5775000,1.5775000,-0.0007443,-0.0011418,-0.0699948,-0.0007443,-0.0026313,0.0001989
1.5800000,1.5800000,1.5800000,-0.0007371,-0.0011363,-0.0696596,-0.0007371,-0.0026159,0.0002064
1.5825000,1.5825000,1.5825000,-0.0007301,-0.0011309,-0.0693265,-0.0007301,-0.0026005,0.0002138
1.5850000,1.5850000,1.5850000,-0.0007231,-0.0011256,-0.0689956,-0.0007231,-0.0025853,0.0002210
1.5875000,1.5875000,1.5875000,-0.0007163,-0.0011203,-0.0686667,-0.0007163,-0.0025701,0.0002281
1.5900000,1.5900000,1.5900000,-0.0007094,-0.0011150,-0.0683400,-0.0007094,-0.0025552,0.0002351
1.5925000,1.5925000,1.5925000,-0.0007027,-0.0011097,-0.0680153,-0.0007027,-0.0025403,0.0002419
1.5950000,1.5950000,1.5950000,-0.0006960,-0.0011045,-0.0676927,-0.0006960,-0.0025255,0.0002487
1.5975000,1.5975000,1.5975000,-0.0006895,-0.0010993,-0.0673721,-0.0006895,-0.0025109,0.0002553
