# r[nm],d[nm],daligned[nm],U(d)[kj/mol],V(d)[e/nm],Uslab(d)[kJ/mol],UC(d)[kJ/mol],UK(d)[kJ/mol],UCl(d)[kJ/mol]
0.1825000,0.1825000,0.1825000,1704.0776338,-0.1996752,247.8384995,1704.0776338,1077.7152579,inf
0.1850000,0.1850000,0.1850000,1499.3680463,-0.1312383,215.3082832,1499.3680463,947.2417302,inf
0.1875000,0.1875000,0.1875000,1318.0922737,-0.1322196,187.1745503,1318.0922737,832.3013768,inf
0.1900000,0.1900000,0.1900000,1160.0977299,-0.1336247,162.8013044,1160.0977299,732.1464846,inf
0.1925000,0.1925000,0.1925000,1022.2368731,-0.1348667,141.6522053,1022.2368731,644.7995515,inf
0.1950000,0.1950000,0.1950000,901.7961701,-0.1355868,123.2735639,901.7961701,568.5181397,inf
0.1975000,0.1975000,0.1975000,796.4290353,-0.1334697,107.2805190,796.4290353,501.7651607,inf
0.2000000,0.2000000,0.2000000,704.0372587,-0.1220217,93.3457367,704.0372587,442.9691290,inf
0.2025000,0.2025000,0.2025000,622.1800995,-0.1453812,81.1901259,622.1800995,389.9861783,inf
0.2050000,0.2050000,0.2050000,547.4004622,-0.2954359,70.5751771,547.4004622,341.9239416,inf
0.2075000,0.2075000,0.2075000,480.2938726,-0.3590400,61.2966136,480.2938726,299.4664744,inf
0.2100000,0.2100000,0.2100000,421.5817796,-0.3745535,53.1791116,421.5817796,262.4153681,1784.3331187
0.2125000,0.2125000,0.2125000,370.4048645,-0.3794784,46.0718893,370.4048645,230.1465404,1571.9408624
0.2150000,0.2150000,0.2150000,325.7735459,-0.3814689,39.8450015,325.7735459,202.0310604,1386.4301875
0.2175000,0.2175000,0.2175000,286.8080339,-0.3823324,34.3862024,286.8080339,177.5112345,1224.1742364
0.2200000,0.2200000,0.2200000,252.7490856,-0.3826132,29.5982690,252.7490856,156.1046417,1082.0670818
0.2225000,0.2225000,0.2225000,222.9442498,-0.3825121,25.3967119,222.9442498,137.3961950,957.4444105
0.2250000,0.2250000,0.2250000,196.8327632,-0.3821164,21.7078345,196.8327632,121.0289575,848.0168971
0.2275000,0.2275000,0.2275000,173.9321184,-0.3814687,18.4671255,173.9321184,106.6957377,751.8141995
0.2300000,0.2300000,0.2300000,153.8265616,-0.3805916,15.6179730,153.8265616,94.1317751,667.1377952
0.2325000,0.2325000,0.2325000,136.1573270,-0.3794964,13.1106692,136.1573270,83.1084556,592.5211915
0.2350000,0.2350000,0.2350000,120.6143484,-0.3781846,10.9016476,120.6143484,73.4279446,526.6962928
0.2375000,0.2375000,0.2375000,106.9292054,-0.3766437,8.9528790,106.9292054,64.9186446,468.5649234
0.2400000,0.2400000,0.2400000,94.8690942,-0.3748370,7.2313531,94.8690942,57.4314069,417.1746720
0.2425000,0.2425000,0.2425000,84.2316639,-0.3726890,5.7085891,84.2316639,50.8364266,371.6983676
0.2450000,0.2450000,0.2450000,74.8406108,-0.3700725,4.3601463,74.8406108,45.0207248,331.4166112
0.2475000,0.2475000,0.2475000,66.5419699,-0.3668041,3.1651276,66.5419699,39.8860890,295.7028835
0.2500000,0.2500000,0.2500000,59.2010555,-0.3626575,2.1056824,59.2010555,35.3473314,264.0108283
0.2525000,0.2525000,0.2525000,52.6999857,-0.3573959,1.1665275,52.6999857,31.3307401,235.8633771
0.2550000,0.2550000,0.2550000,46.9356910,-0.3508191,0.3345027,46.9356910,27.7726421,210.8434324
0.2575000,0.2575000,0.2575000,41.8182727,-0.3428130,-0.4018208,41.8182727,24.6180466,188.5858741
0.2600000,0.2600000,0.2600000,37.2695725,-0.3333832,-1.0524686,37.2695725,21.8193795,168.7706869
0.2625000,0.2625000,0.2625000,33.2218430,-0.3226650,-1.6263225,33.2218430,19.3353374,151.1170356
0.2650000,0.2650000,0.2650000,29.6164593,-0.3109035,-2.1313143,29.6164593,17.1298883,135.3781369
0.2675000,0.2675000,0.2675000,26.4026685,-0.2984149,-2.5745647,26.4026685,15.1714295,121.3367993
0.2700000,0.2700000,0.2700000,23.5364119,-0.2855408,-2.9624799,23.5364119,13.4320989,108.8015342
0.2725000,0.2725000,0.2725000,20.9792620,-0.2726076,-3.3008240,20.9792620,11.8872237,97.6031703
0.2750000,0.2750000,0.2750000,18.6975063,-0.2598985,-3.5947782,18.6975063,10.5148842,87.5919418
0.2775000,0.2775000,0.2775000,16.6613884,-0.2476401,-3.8490003,16.6613884,9.2955690,78.6350300
0.2800000,0.2800000,0.2800000,14.8444971,-0.2359991,-4.0676849,14.8444971,8.2119003,70.6145401
0.2825000,0.2825000,0.2825000,13.2232843,-0.2250877,-4.2546253,13.2232843,7.2484098,63.4258660
0.2850000,0.2850000,0.2850000,11.7766864,-0.2149714,-4.4132693,11.7766864,6.3913499,56.9763640
0.2875000,0.2875000,0.2875000,10.4858262,-0.2056776,-4.5467649,10.4858262,5.6285300,51.1842352
0.2900000,0.2900000,0.2900000,9.3337748,-0.1972036,-4.6579929,9.3337748,4.9491692,45.9775101
0.2925000,0.2925000,0.2925000,8.3053562,-0.1895234,-4.7495875,8.3053562,4.3437613,41.2930582
0.2950000,0.2950000,0.2950000,7.3869823,-0.1825923,-4.8239493,7.3869823,3.8039473,37.0755870
0.2975000,0.2975000,0.2975000,6.5665103,-0.1763522,-4.8832547,6.5665103,3.3223949,33.2766394
0.3000000,0.3000000,0.3000000,5.8331140,-0.1707346,-4.9294661,5.8331140,2.8926827,29.8536293
0.3025000,0.3025000,0.3025000,5.1771672,-0.1656652,-4.9643430,5.1771672,2.5091905,26.7689574
0.3050000,0.3050000,0.3050000,4.5901345,-0.1610667,-4.9894549,4.5901345,2.1669957,23.9892428
0.3075000,0.3075000,0.3075000,4.0644678,-0.1568624,-5.0061955,4.0644678,1.8617766,21.4846802
0.3100000,0.3100000,0.3100000,3.5935081,-0.1529793,-5.0157982,3.5935081,1.5897251,19.2285192
0.3125000,0.3125000,0.3125000,3.1713902,-0.1493498,-5.0193528,3.1713902,1.3474680,17.1966486
0.3150000,0.3150000,0.3150000,2.7929521,-0.1459138,-5.0178211,2.7929521,1.1319986,15.3672670
0.3175000,0.3175000,0.3175000,2.4536484,-0.1426196,-5.0120500,2.4536484,0.9406188,13.7206181
0.3200000,0.3200000,0.3200000,2.1494700,-0.1394244,-5.0027812,2.1494700,0.7708905,12.2387773
0.3225000,0.3225000,0.3225000,1.8768699,-0.1362942,-4.9906558,1.8768699,0.6205965,10.9054751
0.3250000,0.3250000,0.3250000,1.6326968,-0.1332034,-4.9762157,1.6326968,0.4877099,9.7059476
0.3275000,0.3275000,0.3275000,1.4141368,-0.1301352,-4.9599044,1.4141368,0.3703691,8.6268083
0.3300000,0.3300000,0.3300000,1.2186635,-0.1270799,-4.9420693,1.2186635,0.2668604,7.6559350
0.3325000,0.3325000,0.3325000,1.0439954,-0.1240346,-4.9229698,1.0439954,0.1756045,6.7823680
0.3350000,0.3350000,0.3350000,0.8880605,-0.1210016,-4.9027904,0.8880605,0.0951480,5.9962177
0.3375000,0.3375000,0.3375000,0.7489659,-0.1179863,-4.8816586,0.7489659,0.0241587,5.2885788
0.3400000,0.3400000,0.3400000,0.6249738,-0.1149950,-4.8596645,0.6249738,-0.0385776,4.6514502
0.3425000,0.3425000,0.3425000,0.5144808,-0.1120329,-4.8368791,0.5144808,-0.0941590,4.0776596
0.3450000,0.3450000,0.3450000,0.4160044,-0.1091021,-4.8133683,0.4160044,-0.1435695,3.5607910
0.3475000,0.3475000,0.3475000,0.3281726,-0.1062011,-4.7892011,0.3281726,-0.1876831,3.0951147
0.3500000,0.3500000,0.3500000,0.2497196,-0.1033241,-4.7644505,0.2497196,-0.2272677,2.6755204
0.3525000,0.3525000,0.3525000,0.1794833,-0.1004625,-4.7391891,0.1794833,-0.2629905,2.2974526
0.3550000,0.3550000,0.3550000,0.1164059,-0.0976065,-4.7134816,0.1164059,-0.2954246,1.9568489
0.3575000,0.3575000,0.3575000,0.0595351,-0.0947474,-4.6873758,0.0595351,-0.3250543,1.6500823
0.3600000,0.3600000,0.3600000,0.0080243,-0.0918796,-4.6608952,0.0080243,-0.3522828,1.3739082
0.3625000,0.3625000,0.3625000,-0.0388673,-0.0890034,-4.6340351,-0.0388673,-0.3774383,1.1254170
0.3650000,0.3650000,0.3650000,-0.0817772,-0.0861257,-4.6067626,-0.0817772,-0.4007822,0.9019911
0.3675000,0.3675000,0.3675000,-0.1212441,-0.0832606,-4.5790212,-0.1212441,-0.4225166,0.7012681
0.3700000,0.3700000,0.3700000,-0.1577140,-0.0804285,-4.5507386,-0.1577140,-0.4427938,0.5211073
0.3725000,0.3725000,0.3725000,-0.1915490,-0.0776545,-4.5218354,-0.1915490,-0.4617261,0.3595608
0.3750000,0.3750000,0.3750000,-0.2230370,-0.0749661,-4.4922343,-0.2230370,-0.4793965,0.2148473
0.3775000,0.3775000,0.3775000,-0.2524022,-0.0723906,-4.4618662,-0.2524022,-0.4958691,0.0853292
0.3800000,0.3800000,0.3800000,-0.2798171,-0.0699529,-4.4306760,-0.2798171,-0.5111993,-0.0305063
0.3825000,0.3825000,0.3825000,-0.3054138,-0.0676732,-4.3986254,-0.3054138,-0.5254424,-0.1340615
0.3850000,0.3850000,0.3850000,-0.3292954,-0.0655661,-4.3656954,-0.3292954,-0.5386598,-0.2266392
0.3875000,0.3875000,0.3875000,-0.3515473,-0.0636394,-4.3318883,-0.3515473,-0.5509231,-0.3094476
0.3900000,0.3900000,0.3900000,-0.3722468,-0.0618947,-4.2972291,-0.3722468,-0.5623148,-0.3836031
0.3925000,0.3925000,0.3925000,-0.3914709,-0.0603281,-4.2617667,-0.3914709,-0.5729269,-0.4501293
0.3950000,0.3950000,0.3950000,-0.4093021,-0.0589308,-4.2255739,-0.4093021,-0.5828576,-0.5099547
0.3975000,0.3975000,0.3975000,-0.4258314,-0.0576915,-4.1887458,-0.4258314,-0.5922051,-0.5639106
0.4000000,0.4000000,0.4000000,-0.4411593,-0.0565967,-4.1513961,-0.4411593,-0.6010617,-0.6127299
0.4025000,0.4025000,0.4025000,-0.4553942,-0.0556320,-4.1136514,-0.4553942,-0.6095058,-0.6570479
0.4050000,0.4050000,0.4050000,-0.4686499,-0.0547832,-4.0756444,-0.4686499,-0.6175971,-0.6974055
0.4075000,0.4075000,0.4075000,-0.4810410,-0.0540363,-4.0375063,-0.4810410,-0.6253731,-0.7342550
0.4100000,0.4100000,0.4100000,-0.4926763,-0.0533786,-3.9993589,-0.4926763,-0.6328495,-0.7679684
0.4125000,0.4125000,0.4125000,-0.5036527,-0.0527988,-3.9613089,-0.5036527,-0.6400232,-0.7988463
0.4150000,0.4150000,0.4150000,-0.5140493,-0.0522878,-3.9234430,-0.5140493,-0.6468764,-0.8271295
0.4175000,0.4175000,0.4175000,-0.5239232,-0.0518388,-3.8858264,-0.5239232,-0.6533827,-0.8530095
0.4200000,0.4200000,0.4200000,-0.5333087,-0.0514474,-3.8485045,-0.5333087,-0.6595107,-0.8766408
0.4225000,0.4225000,0.4225000,-0.5422194,-0.0511109,-3.8115064,-0.5422194,-0.6652272,-0.8981514
0.4250000,0.4250000,0.4250000,-0.5506523,-0.0508280,-3.7748498,-0.5506523,-0.6704974,-0.9176537
0.4275000,0.4275000,0.4275000,-0.5585935,-0.0505972,-3.7385466,-0.5585935,-0.6752845,-0.9352534
0.4300000,0.4300000,0.4300000,-0.5660240,-0.0504163,-3.7026058,-0.5660240,-0.6795486,-0.9510567
0.4325000,0.4325000,0.4325000,-0.5729236,-0.0502812,-3.6670350,-0.5729236,-0.6832471,-0.9651757
0.4350000,0.4350000,0.4350000,-0.5792737,-0.0501850,-3.6318390,-0.5792737,-0.6863361,-0.9777306
0.4375000,0.4375000,0.4375000,-0.5850584,-0.0501183,-3.5970159,-0.5850584,-0.6887741,-0.9888499
0.4400000,0.4400000,0.4400000,-0.5902640,-0.0500686,-3.5625532,-0.5902640,-0.6905255,-0.9986677
0.4425000,0.4425000,0.4425000,-0.5948793,-0.0500208,-3.5284244,-0.5948793,-0.6915645,-1.0073194
0.4450000,0.4450000,0.4450000,-0.5988958,-0.0499580,-3.4945865,-0.5988958,-0.6918771,-1.0149351
0.4475000,0.4475000,0.4475000,-0.6023089,-0.0498621,-3.4609809,-0.6023089,-0.6914621,-1.0216337
0.4500000,0.4500000,0.4500000,-0.6051189,-0.0497150,-3.4275359,-0.6051189,-0.6903304,-1.0275169
0.4525000,0.4525000,0.4525000,-0.6073323,-0.0494994,-3.3941710,-0.6073323,-0.6885035,-1.0326662
0.4550000,0.4550000,0.4550000,-0.6089620,-0.0492008,-3.3608024,-0.6089620,-0.6860113,-1.0371406
0.4575000,0.4575000,0.4575000,-0.6100258,-0.0488078,-3.3273482,-0.6100258,-0.6828893,-1.0409783
0.4600000,0.4600000,0.4600000,-0.6105454,-0.0483134,-3.2937340,-0.6105454,-0.6791772,-1.0441998
0.4625000,0.4625000,0.4625000,-0.6105444,-0.0477152,-3.2598962,-0.6105444,-0.6749173,-1.0468120
0.4650000,0.4650000,0.4650000,-0.6100465,-0.0470153,-3.2257851,-0.6100465,-0.6701544,-1.0488133
0.4675000,0.4675000,0.4675000,-0.6090744,-0.0462199,-3.1913660,-0.6090744,-0.6649367,-1.0501982
0.4700000,0.4700000,0.4700000,-0.6076497,-0.0453382,-3.1566198,-0.6076497,-0.6593160,-1.0509606
0.4725000,0.4725000,0.4725000,-0.6057930,-0.0443817,-3.1215421,-0.6057930,-0.6533485,-1.0510967
0.4750000,0.4750000,0.4750000,-0.6035254,-0.0433632,-3.0861419,-0.6035254,-0.6470942,-1.0506066
0.4775000,0.4775000,0.4775000,-0.6008706,-0.0422960,-3.0504396,-0.6008706,-0.6406154,-1.0494955
0.4800000,0.4800000,0.4800000,-0.5978562,-0.0411929,-3.0144654,-0.5978562,-0.6339747,-1.0477747
0.4825000,0.4825000,0.4825000,-0.5945151,-0.0400659,-2.9782569,-0.5945151,-0.6272329,-1.0454621
0.4850000,0.4850000,0.4850000,-0.5908858,-0.0389255,-2.9418573,-0.5908858,-0.6204463,-1.0425819
0.4875000,0.4875000,0.4875000,-0.5870116,-0.0377805,-2.9053133,-0.5870116,-0.6136644,-1.0391642
0.4900000,0.4900000,0.4900000,-0.5829396,-0.0366376,-2.8686739,-0.5829396,-0.6069280,-1.0352430
0.4925000,0.4925000,0.4925000,-0.5787184,-0.0355019,-2.8319888,-0.5787184,-0.6002672,-1.0308540
0.4950000,0.4950000,0.4950000,-0.5743955,-0.0343766,-2.7953073,-0.5743955,-0.5936997,-1.0260325
0.4975000,0.4975000,0.4975000,-0.5700149,-0.0332634,-2.7586775,-0.5700149,-0.5872308,-1.0208108
0.5000000,0.5000000,0.5000000,-0.5656139,-0.0321635,-2.7221454,-0.5656139,-0.5808531,-1.0152170
0.5025000,0.5025000,0.5025000,-0.5612203,-0.0310778,-2.6857547,-0.5612203,-0.5745480,-1.0092742
0.5050000,0.5050000,0.5050000,-0.5568507,-0.0300073,-2.6495460,-0.5568507,-0.5682880,-1.0030012
0.5075000,0.5075000,0.5075000,-0.5525093,-0.0289537,-2.6135573,-0.5525093,-0.5620391,-0.9964132
0.5100000,0.5100000,0.5100000,-0.5481873,-0.0279191,-2.5778229,-0.5481873,-0.5557644,-0.9895247
0.5125000,0.5125000,0.5125000,-0.5438648,-0.0269067,-2.5423744,-0.5438648,-0.5494266,-0.9823507
0.5150000,0.5150000,0.5150000,-0.5395127,-0.0259195,-2.5072399,-0.5395127,-0.5429911,-0.9749090
0.5175000,0.5175000,0.5175000,-0.5350954,-0.0249614,-2.4724446,-0.5350954,-0.5364278,-0.9672217
0.5200000,0.5200000,0.5200000,-0.5305744,-0.0240357,-2.4380108,-0.5305744,-0.5297127,-0.9593154
0.5225000,0.5225000,0.5225000,-0.5259111,-0.0231457,-2.4039578,-0.5259111,-0.5228287,-0.9512217
0.5250000,0.5250000,0.5250000,-0.5210694,-0.0222941,-2.3703027,-0.5210694,-0.5157655,-0.9429755
0.5275000,0.5275000,0.5275000,-0.5160185,-0.0214831,-2.3370596,-0.5160185,-0.5085197,-0.9346137
0.5300000,0.5300000,0.5300000,-0.5107336,-0.0207139,-2.3042408,-0.5107336,-0.5010941,-0.9261725
0.5325000,0.5325000,0.5325000,-0.5051975,-0.0199874,-2.2718562,-0.5051975,-0.4934968,-0.9176846
0.5350000,0.5350000,0.5350000,-0.4994000,-0.0193037,-2.2399141,-0.4994000,-0.4857401,-0.9091765
0.5375000,0.5375000,0.5375000,-0.4933386,-0.0186621,-2.2084207,-0.4933386,-0.4778400,-0.9006661
0.5400000,0.5400000,0.5400000,-0.4870169,-0.0180617,-2.1773808,-0.4870169,-0.4698147,-0.8921609
0.5425000,0.5425000,0.5425000,-0.4804447,-0.0175011,-2.1467979,-0.4804447,-0.4616844,-0.8836580
0.5450000,0.5450000,0.5450000,-0.4736362,-0.0169784,-2.1166740,-0.4736362,-0.4534700,-0.8751440
0.5475000,0.5475000,0.5475000,-0.4666097,-0.0164918,-2.0870099,-0.4666097,-0.4451925,-0.8665969
0.5500000,0.5500000,0.5500000,-0.4593862,-0.0160391,-2.0578057,-0.4593862,-0.4368731,-0.8579880
0.5525000,0.5525000,0.5525000,-0.4519886,-0.0156180,-2.0290602,-0.4519886,-0.4285320,-0.8492845
0.5550000,0.5550000,0.5550000,-0.4444410,-0.0152264,-2.0007716,-0.4444410,-0.4201887,-0.8404523
0.5575000,0.5575000,0.5575000,-0.4367679,-0.0148621,-1.9729373,-0.4367679,-0.4118615,-0.8314585
0.5600000,0.5600000,0.5600000,-0.4289937,-0.0145229,-1.9455541,-0.4289937,-0.4035673,-0.8222732
0.5625000,0.5625000,0.5625000,-0.4211423,-0.0142068,-1.9186182,-0.4211423,-0.3953217,-0.8128716
0.5650000,0.5650000,0.5650000,-0.4132366,-0.0139117,-1.8921255,-0.4132366,-0.3871387,-0.8032348
0.5675000,0.5675000,0.5675000,-0.4052982,-0.0136360,-1.8660711,-0.4052982,-0.3790313,-0.7933503
0.5700000,0.5700000,0.5700000,-0.3973477,-0.0133778,-1.8404502,-0.3973477,-0.3710106,-0.7832125
0.5725000,0.5725000,0.5725000,-0.3894038,-0.0131355,-1.8152574,-0.3894038,-0.3630868,-0.7728219
0.5750000,0.5750000,0.5750000,-0.3814839,-0.0129078,-1.7904870,-0.3814839,-0.3552684,-0.7621852
0.5775000,0.5775000,0.5775000,-0.3736039,-0.0126931,-1.7661334,-0.3736039,-0.3475630,-0.7513140
0.5800000,0.5800000,0.5800000,-0.3657781,-0.0124904,-1.7421904,-0.3657781,-0.3399771,-0.7402245
0.5825000,0.5825000,0.5825000,-0.3580191,-0.0122984,-1.7186521,-0.3580191,-0.3325159,-0.7289362
0.5850000,0.5850000,0.5850000,-0.3503384,-0.0121162,-1.6955121,-0.3503384,-0.3251839,-0.7174713
0.5875000,0.5875000,0.5875000,-0.3427459,-0.0119428,-1.6727641,-0.3427459,-0.3179847,-0.7058539
0.5900000,0.5900000,0.5900000,-0.3352504,-0.0117774,-1.6504019,-0.3352504,-0.3109210,-0.6941093
0.5925000,0.5925000,0.5925000,-0.3278594,-0.0116193,-1.6284188,-0.3278594,-0.3039949,-0.6822633
0.5950000,0.5950000,0.5950000,-0.3205793,-0.0114677,-1.6068086,-0.3205793,-0.2972079,-0.6703415
0.5975000,0.5975000,0.5975000,-0.3134156,-0.0113220,-1.5855647,-0.3134156,-0.2905607,-0.6583693
0.6000000,0.6000000,0.6000000,-0.3063727,-0.0111817,-1.5646808,-0.3063727,-0.2840537,-0.6463713
0.6025000,0.6025000,0.6025000,-0.2994543,-0.0110464,-1.5441504,-0.2994543,-0.2776869,-0.6343707
0.6050000,0.6050000,0.6050000,-0.2926633,-0.0109155,-1.5239672,-0.2926633,-0.2714598,-0.6223898
0.6075000,0.6075000,0.6075000,-0.2860019,-0.0107886,-1.5041249,-0.2860019,-0.2653716,-0.6104492
0.6100000,0.6100000,0.6100000,-0.2794717,-0.0106656,-1.4846171,-0.2794717,-0.2594211,-0.5985682
0.6125000,0.6125000,0.6125000,-0.2730738,-0.0105459,-1.4654378,-0.2730738,-0.2536071,-0.5867644
0.6150000,0.6150000,0.6150000,-0.2668087,-0.0104293,-1.4465807,-0.2668087,-0.2479278,-0.5750538
0.6175000,0.6175000,0.6175000,-0.2606765,-0.0103156,-1.4280399,-0.2606765,-0.2423815,-0.5634511
0.6200000,0.6200000,0.6200000,-0.2546770,-0.0102046,-1.4098093,-0.2546770,-0.2369662,-0.5519691
0.6225000,0.6225000,0.6225000,-0.2488095,-0.0100960,-1.3918831,-0.2488095,-0.2316799,-0.5406197
0.6250000,0.6250000,0.6250000,-0.2430733,-0.0099898,-1.3742554,-0.2430733,-0.2265204,-0.5294128
0.6275000,0.6275000,0.6275000,-0.2374670,-0.0098856,-1.3569206,-0.2374670,-0.2214853,-0.5183575
0.6300000,0.6300000,0.6300000,-0.2319895,-0.0097834,-1.3398730,-0.2319895,-0.2165724,-0.5074614
0.6325000,0.6325000,0.6325000,-0.2266390,-0.0096831,-1.3231071,-0.2266390,-0.2117791,-0.4967311
0.6350000,0.6350000,0.6350000,-0.2214138,-0.0095845,-1.3066175,-0.2214138,-0.2071031,-0.4861721
0.6375000,0.6375000,0.6375000,-0.2163122,-0.0094875,-1.2903989,-0.2163122,-0.2025419,-0.4757889
0.6400000,0.6400000,0.6400000,-0.2113321,-0.0093921,-1.2744459,-0.2113321,-0.1980930,-0.4655852
0.6425000,0.6425000,0.6425000,-0.2064715,-0.0092982,-1.2587535,-0.2064715,-0.1937538,-0.4555638
0.6450000,0.6450000,0.6450000,-0.2017281,-0.0092056,-1.2433166,-0.2017281,-0.1895219,-0.4457268
0.6475000,0.6475000,0.6475000,-0.1970998,-0.0091144,-1.2281303,-0.1970998,-0.1853948,-0.4360756
0.6500000,0.6500000,0.6500000,-0.1925844,-0.0090245,-1.2131896,-0.1925844,-0.1813699,-0.4266111
0.6525000,0.6525000,0.6525000,-0.1881794,-0.0089358,-1.1984900,-0.1881794,-0.1774449,-0.4173337
0.6550000,0.6550000,0.6550000,-0.1838827,-0.0088482,-1.1840266,-0.1838827,-0.1736172,-0.4082430
0.6575000,0.6575000,0.6575000,-0.1796918,-0.0087618,-1.1697950,-0.1796918,-0.1698846,-0.3993385
0.6600000,0.6600000,0.6600000,-0.1756045,-0.0086765,-1.1557906,-0.1756045,-0.1662445,-0.3906192
0.6625000,0.6625000,0.6625000,-0.1716184,-0.0085923,-1.1420090,-0.1716184,-0.1626948,-0.3820838
0.6650000,0.6650000,0.6650000,-0.1677311,-0.0085091,-1.1284460,-0.1677311,-0.1592330,-0.3737307
0.6675000,0.6675000,0.6675000,-0.1639404,-0.0084269,-1.1150974,-0.1639404,-0.1558570,-0.3655579
0.6700000,0.6700000,0.6700000,-0.1602440,-0.0083457,-1.1019590,-0.1602440,-0.1525645,-0.3575634
0.6725000,0.6725000,0.6725000,-0.1566396,-0.0082654,-1.0890268,-0.1566396,-0.1493535,-0.3497448
0.6750000,0.6750000,0.6750000,-0.1531249,-0.0081861,-1.0762969,-0.1531249,-0.1462216,-0.3420998
0.6775000,0.6775000,0.6775000,-0.1496978,-0.0081077,-1.0637653,-0.1496978,-0.1431670,-0.3346257
0.6800000,0.6800000,0.6800000,-0.1463561,-0.0080301,-1.0514283,-0.1463561,-0.1401874,-0.3273197
0.6825000,0.6825000,0.6825000,-0.1430976,-0.0079535,-1.0392823,-0.1430976,-0.1372811,-0.3201792
0.6850000,0.6850000,0.6850000,-0.1399202,-0.0078777,-1.0273235,-0.1399202,-0.1344460,-0.3132011
0.6875000,0.6875000,0.6875000,-0.1368220,-0.0078028,-1.0155484,-0.1368220,-0.1316803,-0.3063825
0.6900000,0.6900000,0.6900000,-0.1338007,-0.0077287,-1.0039536,-0.1338007,-0.1289820,-0.2997205
0.6925000,0.6925000,0.6925000,-0.1308546,-0.0076554,-0.9925356,-0.1308546,-0.1263495,-0.2932120
0.6950000,0.6950000,0.6950000,-0.1279815,-0.0075830,-0.9812912,-0.1279815,-0.1237809,-0.2868539
0.6975000,0.6975000,0.6975000,-0.1251797,-0.0075113,-0.9702171,-0.1251797,-0.1212746,-0.2806432
0.7000000,0.7000000,0.7000000,-0.1224473,-0.0074405,-0.9593100,-0.1224473,-0.1188288,-0.2745767
0.7025000,0.7025000,0.7025000,-0.1197824,-0.0073704,-0.9485669,-0.1197824,-0.1164421,-0.2686515
0.7050000,0.7050000,0.7050000,-0.1171833,-0.0073011,-0.9379847,-0.1171833,-0.1141127,-0.2628644
0.7075000,0.7075000,0.7075000,-0.1146483,-0.0072325,-0.9275605,-0.1146483,-0.1118392,-0.2572125
0.7100000,0.7100000,0.7100000,-0.1121756,-0.0071647,-0.9172913,-0.1121756,-0.1096201,-0.2516928
0.7125000,0.7125000,0.7125000,-0.1097637,-0.0070977,-0.9071742,-0.1097637,-0.1074539,-0.2463022
0.7150000,0.7150000,0.7150000,-0.1074109,-0.0070313,-0.8972065,-0.1074109,-0.1053392,-0.2410378
0.7175000,0.7175000,0.7175000,-0.1051156,-0.0069658,-0.8873854,-0.1051156,-0.1032746,-0.2358967
0.7200000,0.7200000,0.7200000,-0.1028764,-0.0069009,-0.8777083,-0.1028764,-0.1012588,-0.2308761
0.7225000,0.7225000,0.7225000,-0.1006917,-0.0068367,-0.8681725,-0.1006917,-0.0992905,-0.2259731
0.7250000,0.7250000,0.7250000,-0.0985602,-0.0067733,-0.8587754,-0.0985602,-0.0973685,-0.2211850
0.7275000,0.7275000,0.7275000,-0.0964803,-0.0067105,-0.8495146,-0.0964803,-0.0954915,-0.2165090
0.7300000,0.7300000,0.7300000,-0.0944507,-0.0066484,-0.8403875,-0.0944507,-0.0936583,-0.2119424
0.7325000,0.7325000,0.7325000,-0.0924702,-0.0065870,-0.8313919,-0.0924702,-0.0918677,-0.2074826
0.7350000,0.7350000,0.7350000,-0.0905373,-0.0065263,-0.8225252,-0.0905373,-0.0901187,-0.2031271
0.7375000,0.7375000,0.7375000,-0.0886508,-0.0064662,-0.8137853,-0.0886508,-0.0884101,-0.1988733
0.7400000,0.7400000,0.7400000,-0.0868096,-0.0064068,-0.8051698,-0.0868096,-0.0867409,-0.1947187
0.7425000,0.7425000,0.7425000,-0.0850124,-0.0063481,-0.7966766,-0.0850124,-0.0851100,-0.1906609
0.7450000,0.7450000,0.7450000,-0.0832580,-0.0062900,-0.7883034,-0.0832580,-0.0835164,-0.1866975
0.7475000,0.7475000,0.7475000,-0.0815453,-0.0062325,-0.7800482,-0.0815453,-0.0819592,-0.1828263
0.7500000,0.7500000,0.7500000,-0.0798732,-0.0061757,-0.7719089,-0.0798732,-0.0804374,-0.1790449
0.7525000,0.7525000,0.7525000,-0.0782407,-0.0061195,-0.7638834,-0.0782407,-0.0789501,-0.1753511
0.7550000,0.7550000,0.7550000,-0.0766467,-0.0060639,-0.7559698,-0.0766467,-0.0774963,-0.1717428
0.7575000,0.7575000,0.7575000,-0.0750902,-0.0060089,-0.7481661,-0.0750902,-0.0760753,-0.1682178
0.7600000,0.7600000,0.7600000,-0.0735702,-0.0059545,-0.7404704,-0.0735702,-0.0746862,-0.1647741
0.7625000,0.7625000,0.7625000,-0.0720857,-0.0059008,-0.7328809,-0.0720857,-0.0733281,-0.1614097
0.7650000,0.7650000,0.7650000,-0.0706359,-0.0058476,-0.7253956,-0.0706359,-0.0720002,-0.1581226
0.7675000,0.7675000,0.7675000,-0.0692198,-0.0057950,-0.7180129,-0.0692198,-0.0707018,-0.1549108
0.7700000,0.7700000,0.7700000,-0.0678365,-0.0057429,-0.7107309,-0.0678365,-0.0694322,-0.1517726
0.7725000,0.7725000,0.7725000,-0.0664853,-0.0056915,-0.7035479,-0.0664853,-0.0681905,-0.1487060
0.7750000,0.7750000,0.7750000,-0.0651652,-0.0056406,-0.6964623,-0.0651652,-0.0669761,-0.1457094
0.7775000,0.7775000,0.7775000,-0.0638755,-0.0055903,-0.6894724,-0.0638755,-0.0657883,-0.1427808
0.7800000,0.7800000,0.7800000,-0.0626153,-0.0055405,-0.6825766,-0.0626153,-0.0646263,-0.1399188
0.7825000,0.7825000,0.7825000,-0.0613840,-0.0054912,-0.6757732,-0.0613840,-0.0634897,-0.1371216
0.7850000,0.7850000,0.7850000,-0.0601807,-0.0054425,-0.6690608,-0.0601807,-0.0623776,-0.1343876
0.7875000,0.7875000,0.7875000,-0.0590048,-0.0053944,-0.6624378,-0.0590048,-0.0612895,-0.1317152
0.7900000,0.7900000,0.7900000,-0.0578556,-0.0053467,-0.6559028,-0.0578556,-0.0602249,-0.1291030
0.7925000,0.7925000,0.7925000,-0.0567323,-0.0052996,-0.6494542,-0.0567323,-0.0591830,-0.1265494
0.7950000,0.7950000,0.7950000,-0.0556343,-0.0052530,-0.6430906,-0.0556343,-0.0581634,-0.1240529
0.7975000,0.7975000,0.7975000,-0.0545610,-0.0052070,-0.6368106,-0.0545610,-0.0571655,-0.1216123
0.8000000,0.8000000,0.8000000,-0.0535118,-0.0051614,-0.6306129,-0.0535118,-0.0561888,-0.1192260
0.8025000,0.8025000,0.8025000,-0.0524859,-0.0051163,-0.6244961,-0.0524859,-0.0552327,-0.1168928
0.8050000,0.8050000,0.8050000,-0.0514830,-0.0050717,-0.6184589,-0.0514830,-0.0542967,-0.1146113
0.8075000,0.8075000,0.8075000,-0.0505023,-0.0050276,-0.6124999,-0.0505023,-0.0533803,-0.1123803
0.8100000,0.8100000,0.8100000,-0.0495433,-0.0049840,-0.6066179,-0.0495433,-0.0524831,-0.1101986
0.8125000,0.8125000,0.8125000,-0.0486054,-0.0049408,-0.6008117,-0.0486054,-0.0516046,-0.1080648
0.8150000,0.8150000,0.8150000,-0.0476882,-0.0048981,-0.5950800,-0.0476882,-0.0507443,-0.1059780
0.8175000,0.8175000,0.8175000,-0.0467912,-0.0048559,-0.5894216,-0.0467912,-0.0499018,-0.1039368
0.8200000,0.8200000,0.8200000,-0.0459137,-0.0048141,-0.5838354,-0.0459137,-0.0490766,-0.1019403
0.8225000,0.8225000,0.8225000,-0.0450554,-0.0047728,-0.5783202,-0.0450554,-0.0482685,-0.0999873
0.8250000,0.8250000,0.8250000,-0.0442158,-0.0047320,-0.5728748,-0.0442158,-0.0474768,-0.0980767
0.8275000,0.8275000,0.8275000,-0.0433944,-0.0046916,-0.5674982,-0.0433944,-0.0467013,-0.0962076
0.8300000,0.8300000,0.8300000,-0.0425907,-0.0046516,-0.5621893,-0.0425907,-0.0459415,-0.0943789
0.8325000,0.8325000,0.8325000,-0.0418044,-0.0046120,-0.5569470,-0.0418044,-0.0451971,-0.0925897
0.8350000,0.8350000,0.8350000,-0.0410349,-0.0045729,-0.5517702,-0.0410349,-0.0444678,-0.0908390
0.8375000,0.8375000,0.8375000,-0.0402820,-0.0045342,-0.5466579,-0.0402820,-0.0437530,-0.0891258
0.8400000,0.8400000,0.8400000,-0.0395451,-0.0044959,-0.5416091,-0.0395451,-0.0430527,-0.0874494
0.8425000,0.8425000,0.8425000,-0.0388239,-0.0044580,-0.5366229,-0.0388239,-0.0423662,-0.0858087
0.8450000,0.8450000,0.8450000,-0.0381180,-0.0044206,-0.5316982,-0.0381180,-0.0416935,-0.0842030
0.8475000,0.8475000,0.8475000,-0.0374271,-0.0043835,-0.5268341,-0.0374271,-0.0410341,-0.0826314
0.8500000,0.8500000,0.8500000,-0.0367508,-0.0043468,-0.5220297,-0.0367508,-0.0403876,-0.0810931
0.8525000,0.8525000,0.8525000,-0.0360887,-0.0043105,-0.5172840,-0.0360887,-0.0397540,-0.0795873
0.8550000,0.8550000,0.8550000,-0.0354405,-0.0042747,-0.5125962,-0.0354405,-0.0391327,-0.0781132
0.8575000,0.8575000,0.8575000,-0.0348059,-0.0042391,-0.5079653,-0.0348059,-0.0385236,-0.0766701
0.8600000,0.8600000,0.8600000,-0.0341845,-0.0042040,-0.5033905,-0.0341845,-0.0379263,-0.0752573
0.8625000,0.8625000,0.8625000,-0.0335760,-0.0041692,-0.4988709,-0.0335760,-0.0373407,-0.0738741
0.8650000,0.8650000,0.8650000,-0.0329802,-0.0041348,-0.4944058,-0.0329802,-0.0367663,-0.0725197
0.8675000,0.8675000,0.8675000,-0.0323967,-0.0041008,-0.4899942,-0.0323967,-0.0362030,-0.0711934
0.8700000,0.8700000,0.8700000,-0.0318252,-0.0040671,-0.4856354,-0.0318252,-0.0356506,-0.0698947
0.8725000,0.8725000,0.8725000,-0.0312654,-0.0040338,-0.4813285,-0.0312654,-0.0351087,-0.0686229
0.8750000,0.8750000,0.8750000,-0.0307172,-0.0040009,-0.4770729,-0.0307172,-0.0345772,-0.0673774
0.8775000,0.8775000,0.8775000,-0.0301801,-0.0039682,-0.4728677,-0.0301801,-0.0340557,-0.0661574
0.8800000,0.8800000,0.8800000,-0.0296540,-0.0039360,-0.4687121,-0.0296540,-0.0335441,-0.0649626
0.8825000,0.8825000,0.8825000,-0.0291386,-0.0039040,-0.4646056,-0.0291386,-0.0330422,-0.0637922
0.8850000,0.8850000,0.8850000,-0.0286336,-0.0038724,-0.4605472,-0.0286336,-0.0325497,-0.0626457
0.8875000,0.8875000,0.8875000,-0.0281389,-0.0038411,-0.4565364,-0.0281389,-0.0320665,-0.0615226
0.8900000,0.8900000,0.8900000,-0.0276541,-0.0038102,-0.4525723,-0.0276541,-0.0315922,-0.0604223
0.8925000,0.8925000,0.8925000,-0.0271790,-0.0037796,-0.4486544,-0.0271790,-0.0311268,-0.0593443
0.8950000,0.8950000,0.8950000,-0.0267135,-0.0037493,-0.4447820,-0.0267135,-0.0306701,-0.0582881
0.8975000,0.8975000,0.8975000,-0.0262573,-0.0037193,-0.4409543,-0.0262573,-0.0302217,-0.0572533
0.9000000,0.9000000,0.9000000,-0.0258101,-0.0036896,-0.4371708,-0.0258101,-0.0297817,-0.0562392
0.9025000,0.9025000,0.9025000,-0.0253719,-0.0036602,-0.4334308,-0.0253719,-0.0293497,-0.0552455
0.9050000,0.9050000,0.9050000,-0.0249423,-0.0036311,-0.4297337,-0.0249423,-0.0289256,-0.0542716
0.9075000,0.9075000,0.9075000,-0.0245212,-0.0036023,-0.4260788,-0.0245212,-0.0285092,-0.0533172
0.9100000,0.9100000,0.9100000,-0.0241084,-0.0035739,-0.4224656,-0.0241084,-0.0281005,-0.0523818
0.9125000,0.9125000,0.9125000,-0.0237037,-0.0035457,-0.4188934,-0.0237037,-0.0276991,-0.0514650
0.9150000,0.9150000,0.9150000,-0.0233069,-0.0035178,-0.4153617,-0.0233069,-0.0273049,-0.0505663
0.9175000,0.9175000,0.9175000,-0.0229179,-0.0034901,-0.4118699,-0.0229179,-0.0269179,-0.0496854
0.9200000,0.9200000,0.9200000,-0.0225365,-0.0034628,-0.4084175,-0.0225365,-0.0265378,-0.0488219
0.9225000,0.9225000,0.9225000,-0.0221624,-0.0034358,-0.4050038,-0.0221624,-0.0261644,-0.0479753
0.9250000,0.9250000,0.9250000,-0.0217956,-0.0034090,-0.4016283,-0.0217956,-0.0257978,-0.0471453
0.9275000,0.9275000,0.9275000,-0.0214359,-0.0033825,-0.3982905,-0.0214359,-0.0254376,-0.0463316
0.9300000,0.9300000,0.9300000,-0.0210831,-0.0033562,-0.3949899,-0.0210831,-0.0250838,-0.0455337
0.9325000,0.9325000,0.9325000,-0.0207371,-0.0033302,-0.3917259,-0.0207371,-0.0247362,-0.0447513
0.9350000,0.9350000,0.9350000,-0.0203977,-0.0033045,-0.3884981,-0.0203977,-0.0243948,-0.0439842
0.9375000,0.9375000,0.9375000,-0.0200648,-0.0032791,-0.3853059,-0.0200648,-0.0240593,-0.0432319
0.9400000,0.9400000,0.9400000,-0.0197383,-0.0032539,-0.3821488,-0.0197383,-0.0237297,-0.0424941
0.9425000,0.9425000,0.9425000,-0.0194179,-0.0032289,-0.3790263,-0.0194179,-0.0234058,-0.0417705
0.9450000,0.9450000,0.9450000,-0.0191036,-0.0032042,-0.3759381,-0.0191036,-0.0230875,-0.0410609
0.9475000,0.9475000,0.9475000,-0.0187952,-0.0031797,-0.3728835,-0.0187952,-0.0227747,-0.0403648
0.9500000,0.9500000,0.9500000,-0.0184927,-0.0031555,-0.3698622,-0.0184927,-0.0224674,-0.0396821
0.9525000,0.9525000,0.9525000,-0.0181958,-0.0031316,-0.3668737,-0.0181958,-0.0221652,-0.0390123
0.9550000,0.9550000,0.9550000,-0.0179045,-0.0031078,-0.3639175,-0.0179045,-0.0218683,-0.0383553
0.9575000,0.9575000,0.9575000,-0.0176187,-0.0030843,-0.3609932,-0.0176187,-0.0215764,-0.0377108
0.9600000,0.9600000,0.9600000,-0.0173382,-0.0030611,-0.3581004,-0.0173382,-0.0212895,-0.0370785
0.9625000,0.9625000,0.9625000,-0.0170628,-0.0030380,-0.3552386,-0.0170628,-0.0210074,-0.0364581
0.9650000,0.9650000,0.9650000,-0.0167926,-0.0030152,-0.3524075,-0.0167926,-0.0207301,-0.0358495
0.9675000,0.9675000,0.9675000,-0.0165274,-0.0029926,-0.3496066,-0.0165274,-0.0204575,-0.0352522
0.9700000,0.9700000,0.9700000,-0.0162671,-0.0029702,-0.3468355,-0.0162671,-0.0201894,-0.0346662
0.9725000,0.9725000,0.9725000,-0.0160115,-0.0029481,-0.3440938,-0.0160115,-0.0199258,-0.0340911
0.9750000,0.9750000,0.9750000,-0.0157607,-0.0029262,-0.3413811,-0.0157607,-0.0196666,-0.0335267
0.9775000,0.9775000,0.9775000,-0.0155144,-0.0029044,-0.3386970,-0.0155144,-0.0194117,-0.0329729
0.9800000,0.9800000,0.9800000,-0.0152726,-0.0028829,-0.3360412,-0.0152726,-0.0191611,-0.0324293
0.9825000,0.9825000,0.9825000,-0.0150352,-0.0028616,-0.3334133,-0.0150352,-0.0189145,-0.0318958
0.9850000,0.9850000,0.9850000,-0.0148022,-0.0028405,-0.3308129,-0.0148022,-0.0186721,-0.0313722
0.9875000,0.9875000,0.9875000,-0.0145733,-0.0028197,-0.3282397,-0.0145733,-0.0184336,-0.0308582
0.9900000,0.9900000,0.9900000,-0.0143486,-0.0027990,-0.3256932,-0.0143486,-0.0181990,-0.0303537
0.9925000,0.9925000,0.9925000,-0.0141279,-0.0027785,-0.3231733,-0.0141279,-0.0179682,-0.0298584
0.9950000,0.9950000,0.9950000,-0.0139112,-0.0027582,-0.3206794,-0.0139112,-0.0177411,-0.0293722
0.9975000,0.9975000,0.9975000,-0.0136983,-0.0027381,-0.3182112,-0.0136983,-0.0175178,-0.0288948
1.0000000,1.0000000,1.0000000,-0.0134893,-0.0027182,-0.3157685,-0.0134893,-0.0172980,-0.0284262
1.0025000,1.0025000,1.0025000,-0.0132840,-0.0026985,-0.3133509,-0.0132840,-0.0170818,-0.0279661
1.0050000,1.0050000,1.0050000,-0.0130823,-0.0026789,-0.3109581,-0.0130823,-0.0168690,-0.0275143
1.0075000,1.0075000,1.0075000,-0.0128842,-0.0026596,-0.3085898,-0.0128842,-0.0166597,-0.0270707
1.0100000,1.0100000,1.0100000,-0.0126896,-0.0026404,-0.3062455,-0.0126896,-0.0164536,-0.0266351
1.0125000,1.0125000,1.0125000,-0.0124985,-0.0026214,-0.3039252,-0.0124985,-0.0162509,-0.0262074
1.0150000,1.0150000,1.0150000,-0.0123107,-0.0026026,-0.3016283,-0.0123107,-0.0160513,-0.0257873
1.0175000,1.0175000,1.0175000,-0.0121262,-0.0025840,-0.2993547,-0.0121262,-0.0158549,-0.0253748
1.0200000,1.0200000,1.0200000,-0.0119449,-0.0025656,-0.2971040,-0.0119449,-0.0156616,-0.0249696
1.0225000,1.0225000,1.0225000,-0.0117668,-0.0025473,-0.2948760,-0.0117668,-0.0154714,-0.0245717
1.0250000,1.0250000,1.0250000,-0.0115918,-0.0025292,-0.2926703,-0.0115918,-0.0152840,-0.0241809
1.0275000,1.0275000,1.0275000,-0.0114198,-0.0025112,-0.2904868,-0.0114198,-0.0150997,-0.0237970
1.0300000,1.0300000,1.0300000,-0.0112508,-0.0024935,-0.2883250,-0.0112508,-0.0149181,-0.0234199
1.0325000,1.0325000,1.0325000,-0.0110847,-0.0024759,-0.2861847,-0.0110847,-0.0147394,-0.0230494
1.0350000,1.0350000,1.0350000,-0.0109215,-0.0024584,-0.2840657,-0.0109215,-0.0145635,-0.0226855
1.0375000,1.0375000,1.0375000,-0.0107611,-0.0024411,-0.2819677,-0.0107611,-0.0143902,-0.0223280
1.0400000,1.0400000,1.0400000,-0.0106034,-0.0024240,-0.2798905,-0.0106034,-0.0142196,-0.0219768
1.0425000,1.0425000,1.0425000,-0.0104485,-0.0024071,-0.2778337,-0.0104485,-0.0140516,-0.0216318
1.0450000,1.0450000,1.0450000,-0.0102961,-0.0023903,-0.2757972,-0.0102961,-0.0138862,-0.0212927
1.0475000,1.0475000,1.0475000,-0.0101464,-0.0023736,-0.2737806,-0.0101464,-0.0137233,-0.0209596
1.0500000,1.0500000,1.0500000,-0.0099992,-0.0023571,-0.2717837,-0.0099992,-0.0135629,-0.0206323
1.0525000,1.0525000,1.0525000,-0.0098545,-0.0023408,-0.2698064,-0.0098545,-0.0134049,-0.0203107
1.0550000,1.0550000,1.0550000,-0.0097123,-0.0023246,-0.2678482,-0.0097123,-0.0132492,-0.0199946
1.0575000,1.0575000,1.0575000,-0.0095724,-0.0023085,-0.2659091,-0.0095724,-0.0130959,-0.0196840
1.0600000,1.0600000,1.0600000,-0.0094349,-0.0022926,-0.2639888,-0.0094349,-0.0129449,-0.0193788
1.0625000,1.0625000,1.0625000,-0.0092997,-0.0022768,-0.2620871,-0.0092997,-0.0127961,-0.0190788
1.0650000,1.0650000,1.0650000,-0.0091668,-0.0022612,-0.2602036,-0.0091668,-0.0126496,-0.0187840
1.0675000,1.0675000,1.0675000,-0.0090361,-0.0022457,-0.2583383,-0.0090361,-0.0125052,-0.0184942
1.0700000,1.0700000,1.0700000,-0.0089076,-0.0022304,-0.2564909,-0.0089076,-0.0123630,-0.0182094
1.0725000,1.0725000,1.0725000,-0.0087812,-0.0022152,-0.2546611,-0.0087812,-0.0122228,-0.0179294
1.0750000,1.0750000,1.0750000,-0.0086568,-0.0022001,-0.2528488,-0.0086568,-0.0120848,-0.0176542
1.0775000,1.0775000,1.0775000,-0.0085346,-0.0021852,-0.2510537,-0.0085346,-0.0119487,-0.0173837
1.0800000,1.0800000,1.0800000,-0.0084143,-0.0021704,-0.2492757,-0.0084143,-0.0118146,-0.0171178
1.0825000,1.0825000,1.0825000,-0.0082961,-0.0021558,-0.2475146,-0.0082961,-0.0116825,-0.0168564
1.0850000,1.0850000,1.0850000,-0.0081798,-0.0021412,-0.2457701,-0.0081798,-0.0115523,-0.0165994
1.0875000,1.0875000,1.0875000,-0.0080653,-0.0021268,-0.2440420,-0.0080653,-0.0114240,-0.0163467
1.0900000,1.0900000,1.0900000,-0.0079528,-0.0021125,-0.2423302,-0.0079528,-0.0112975,-0.0160983
1.0925000,1.0925000,1.0925000,-0.0078421,-0.0020984,-0.2406345,-0.0078421,-0.0111728,-0.0158540
1.0950000,1.0950000,1.0950000,-0.0077332,-0.0020844,-0.2389546,-0.0077332,-0.0110500,-0.0156139
1.0975000,1.0975000,1.0975000,-0.0076260,-0.0020705,-0.2372904,-0.0076260,-0.0109289,-0.0153777
1.1000000,1.1000000,1.1000000,-0.0075206,-0.0020567,-0.2356417,-0.0075206,-0.0108095,-0.0151455
1.1025000,1.1025000,1.1025000,-0.0074169,-0.0020430,-0.2340083,-0.0074169,-0.0106918,-0.0149171
1.1050000,1.1050000,1.1050000,-0.0073148,-0.0020295,-0.2323901,-0.0073148,-0.0105758,-0.0146926
1.1075000,1.1075000,1.1075000,-0.0072144,-0.0020161,-0.2307868,-0.0072144,-0.0104614,-0.0144717
1.1100000,1.1100000,1.1100000,-0.0071156,-0.0020028,-0.2291984,-0.0071156,-0.0103486,-0.0142545
1.1125000,1.1125000,1.1125000,-0.0070184,-0.0019896,-0.2276245,-0.0070184,-0.0102374,-0.0140409
1.1150000,1.1150000,1.1150000,-0.0069227,-0.0019765,-0.2260651,-0.0069227,-0.0101278,-0.0138309
1.1175000,1.1175000,1.1175000,-0.0068286,-0.0019636,-0.2245200,-0.0068286,-0.0100197,-0.0136242
1.1200000,1.1200000,1.1200000,-0.0067359,-0.0019507,-0.2229890,-0.0067359,-0.0099131,-0.0134210
1.1225000,1.1225000,1.1225000,-0.0066447,-0.0019380,-0.2214720,-0.0066447,-0.0098080,-0.0132211
1.1250000,1.1250000,1.1250000,-0.0065550,-0.0019253,-0.2199688,-0.0065550,-0.0097043,-0.0130244
1.1275000,1.1275000,1.1275000,-0.0064667,-0.0019128,-0.2184792,-0.0064667,-0.0096021,-0.0128310
1.1300000,1.1300000,1.1300000,-0.0063797,-0.0019004,-0.2170031,-0.0063797,-0.0095013,-0.0126407
1.1325000,1.1325000,1.1325000,-0.0062941,-0.0018881,-0.2155404,-0.0062941,-0.0094018,-0.0124535
1.1350000,1.1350000,1.1350000,-0.0062099,-0.0018759,-0.2140908,-0.0062099,-0.0093038,-0.0122693
1.1375000,1.1375000,1.1375000,-0.0061270,-0.0018638,-0.2126543,-0.0061270,-0.0092070,-0.0120882
1.1400000,1.1400000,1.1400000,-0.0060454,-0.0018518,-0.2112306,-0.0060454,-0.0091116,-0.0119099
1.1425000,1.1425000,1.1425000,-0.0059650,-0.0018399,-0.2098197,-0.0059650,-0.0090175,-0.0117345
1.1450000,1.1450000,1.1450000,-0.0058859,-0.0018281,-0.2084214,-0.0058859,-0.0089246,-0.0115619
1.1475000,1.1475000,1.1475000,-0.0058080,-0.0018165,-0.2070356,-0.0058080,-0.0088330,-0.0113921
1.1500000,1.1500000,1.1500000,-0.0057313,-0.0018049,-0.2056620,-0.0057313,-0.0087426,-0.0112251
1.1525000,1.1525000,1.1525000,-0.0056558,-0.0017934,-0.2043007,-0.0056558,-0.0086534,-0.0110607
1.1550000,1.1550000,1.1550000,-0.0055815,-0.0017820,-0.2029514,-0.0055815,-0.0085655,-0.0108989
1.1575000,1.1575000,1.1575000,-0.0055083,-0.0017707,-0.2016140,-0.0055083,-0.0084787,-0.0107397
1.1600000,1.1600000,1.1600000,-0.0054362,-0.0017595,-0.2002884,-0.0054362,-0.0083930,-0.0105830
1.1625000,1.1625000,1.1625000,-0.0053652,-0.0017484,-0.1989745,-0.0053652,-0.0083085,-0.0104288
1.1650000,1.1650000,1.1650000,-0.0052953,-0.0017373,-0.1976721,-0.0052953,-0.0082251,-0.0102771
1.1675000,1.1675000,1.1675000,-0.0052265,-0.0017264,-0.1963811,-0.0052265,-0.0081428,-0.0101277
1.1700000,1.1700000,1.1700000,-0.0051587,-0.0017156,-0.1951013,-0.0051587,-0.0080616,-0.0099807
1.1725000,1.1725000,1.1725000,-0.0050919,-0.0017048,-0.1938327,-0.0050919,-0.0079814,-0.0098361
1.1750000,1.1750000,1.1750000,-0.0050262,-0.0016942,-0.1925751,-0.0050262,-0.0079023,-0.0096937
1.1775000,1.1775000,1.1775000,-0.0049614,-0.0016836,-0.1913285,-0.0049614,-0.0078242,-0.0095535
1.1800000,1.1800000,1.1800000,-0.0048976,-0.0016731,-0.1900926,-0.0048976,-0.0077472,-0.0094155
1.1825000,1.1825000,1.1825000,-0.0048348,-0.0016627,-0.1888674,-0.0048348,-0.0076711,-0.0092797
1.1850000,1.1850000,1.1850000,-0.0047729,-0.0016524,-0.1876527,-0.0047729,-0.0075960,-0.0091460
1.1875000,1.1875000,1.1875000,-0.0047119,-0.0016422,-0.1864485,-0.0047119,-0.0075219,-0.0090144
1.1900000,1.1900000,1.1900000,-0.0046519,-0.0016320,-0.1852546,-0.0046519,-0.0074487,-0.0088848
1.1925000,1.1925000,1.1925000,-0.0045927,-0.0016220,-0.1840710,-0.0045927,-0.0073765,-0.0087573
1.1950000,1.1950000,1.1950000,-0.0045344,-0.0016120,-0.1828974,-0.0045344,-0.0073052,-0.0086317
1.1975000,1.1975000,1.1975000,-0.0044770,-0.0016021,-0.1817339,-0.0044770,-0.0072348,-0.0085081
1.2000000,1.2000000,1.2000000,-0.0044204,-0.0015923,-0.1805802,-0.0044204,-0.0071653,-0.0083863
1.2025000,1.2025000,1.2025000,-0.0043647,-0.0015825,-0.1794363,-0.0043647,-0.0070966,-0.0082665
1.2050000,1.2050000,1.2050000,-0.0043097,-0.0015729,-0.1783021,-0.0043097,-0.0070289,-0.0081485
1.2075000,1.2075000,1.2075000,-0.0042556,-0.0015633,-0.1771775,-0.0042556,-0.0069620,-0.0080323
1.2100000,1.2100000,1.2100000,-0.0042023,-0.0015538,-0.1760624,-0.0042023,-0.0068959,-0.0079178
1.2125000,1.2125000,1.2125000,-0.0041498,-0.0015444,-0.1749567,-0.0041498,-0.0068307,-0.0078052
1.2150000,1.2150000,1.2150000,-0.0040980,-0.0015350,-0.1738602,-0.0040980,-0.0067662,-0.0076942
1.2175000,1.2175000,1.2175000,-0.0040470,-0.0015257,-0.1727729,-0.0040470,-0.0067026,-0.0075850
1.2200000,1.2200000,1.2200000,-0.0039967,-0.0015165,-0.1716947,-0.0039967,-0.0066398,-0.0074774
1.2225000,1.2225000,1.2225000,-0.0039472,-0.0015074,-0.1706255,-0.0039472,-0.0065777,-0.0073714
1.2250000,1.2250000,1.2250000,-0.0038983,-0.0014984,-0.1695652,-0.0038983,-0.0065164,-0.0072671
1.2275000,1.2275000,1.2275000,-0.0038502,-0.0014894,-0.1685137,-0.0038502,-0.0064559,-0.0071643
1.2300000,1.2300000,1.2300000,-0.0038028,-0.0014805,-0.1674709,-0.0038028,-0.0063961,-0.0070631
1.2325000,1.2325000,1.2325000,-0.0037560,-0.0014716,-0.1664368,-0.0037560,-0.0063371,-0.0069634
1.2350000,1.2350000,1.2350000,-0.0037099,-0.0014628,-0.1654112,-0.0037099,-0.0062787,-0.0068652
1.2375000,1.2375000,1.2375000,-0.0036645,-0.0014541,-0.1643940,-0.0036645,-0.0062211,-0.0067684
1.2400000,1.2400000,1.2400000,-0.0036197,-0.0014455,-0.1633851,-0.0036197,-0.0061642,-0.0066732
1.2425000,1.2425000,1.2425000,-0.0035756,-0.0014369,-0.1623846,-0.0035756,-0.0061079,-0.0065793
1.2450000,1.2450000,1.2450000,-0.0035321,-0.0014284,-0.1613922,-0.0035321,-0.0060524,-0.0064869
1.2475000,1.2475000,1.2475000,-0.0034892,-0.0014200,-0.1604080,-0.0034892,-0.0059975,-0.0063959
1.2500000,1.2500000,1.2500000,-0.0034469,-0.0014116,-0.1594317,-0.0034469,-0.0059433,-0.0063062
1.2525000,1.2525000,1.2525000,-0.0034052,-0.0014033,-0.1584634,-0.0034052,-0.0058897,-0.0062178
1.2550000,1.2550000,1.2550000,-0.0033641,-0.0013951,-0.1575030,-0.0033641,-0.0058367,-0.0061307
1.2575000,1.2575000,1.2575000,-0.0033236,-0.0013869,-0.1565503,-0.0033236,-0.0057844,-0.0060450
1.2600000,1.2600000,1.2600000,-0.0032837,-0.0013788,-0.1556054,-0.0032837,-0.0057327,-0.0059605
1.2625000,1.2625000,1.2625000,-0.0032443,-0.0013708,-0.1546680,-0.0032443,-0.0056817,-0.0058773
1.2650000,1.2650000,1.2650000,-0.0032055,-0.0013628,-0.1537382,-0.0032055,-0.0056312,-0.0057952
1.2675000,1.2675000,1.2675000,-0.0031672,-0.0013549,-0.1528159,-0.0031672,-0.0055813,-0.0057144
1.2700000,1.2700000,1.2700000,-0.0031294,-0.0013470,-0.1519010,-0.0031294,-0.0055320,-0.0056348
1.2725000,1.2725000,1.2725000,-0.0030922,-0.0013392,-0.1509933,-0.0030922,-0.0054833,-0.0055564
1.2750000,1.2750000,1.2750000,-0.0030555,-0.0013315,-0.1500930,-0.0030555,-0.0054352,-0.0054791
1.2775000,1.2775000,1.2775000,-0.0030192,-0.0013238,-0.1491998,-0.0030192,-0.0053876,-0.0054029
1.2800000,1.2800000,1.2800000,-0.0029835,-0.0013162,-0.1483137,-0.0029835,-0.0053406,-0.0053279
1.2825000,1.2825000,1.2825000,-0.0029483,-0.0013086,-0.1474346,-0.0029483,-0.0052941,-0.0052539
1.2850000,1.2850000,1.2850000,-0.0029136,-0.0013011,-0.1465625,-0.0029136,-0.0052482,-0.0051810
1.2875000,1.2875000,1.2875000,-0.0028793,-0.0012936,-0.1456973,-0.0028793,-0.0052028,-0.0051092
1.2900000,1.2900000,1.2900000,-0.0028456,-0.0012862,-0.1448389,-0.0028456,-0.0051579,-0.0050385
1.2925000,1.2925000,1.2925000,-0.0028122,-0.0012789,-0.1439872,-0.0028122,-0.0051135,-0.0049687
1.2950000,1.2950000,1.2950000,-0.0027794,-0.0012716,-0.1431423,-0.0027794,-0.0050696,-0.0049000
1.2975000,1.2975000,1.2975000,-0.0027470,-0.0012644,-0.1423040,-0.0027470,-0.0050263,-0.0048322
1.3000000,1.3000000,1.3000000,-0.0027150,-0.0012572,-0.1414722,-0.0027150,-0.0049834,-0.0047655
1.3025000,1.3025000,1.3025000,-0.0026834,-0.0012501,-0.1406469,-0.0026834,-0.0049410,-0.0046997
1.3050000,1.3050000,1.3050000,-0.0026523,-0.0012430,-0.1398281,-0.0026523,-0.0048991,-0.0046348
1.3075000,1.3075000,1.3075000,-0.0026216,-0.0012360,-0.1390156,-0.0026216,-0.0048577,-0.0045709
1.3100000,1.3100000,1.3100000,-0.0025914,-0.0012290,-0.1382095,-0.0025914,-0.0048167,-0.0045079
1.3125000,1.3125000,1.3125000,-0.0025615,-0.0012221,-0.1374096,-0.0025615,-0.0047762,-0.0044458
1.3150000,1.3150000,1.3150000,-0.0025320,-0.0012153,-0.1366158,-0.0025320,-0.0047362,-0.0043846
1.3175000,1.3175000,1.3175000,-0.0025030,-0.0012085,-0.1358282,-0.0025030,-0.0046966,-0.0043242
1.3200000,1.3200000,1.3200000,-0.0024743,-0.0012017,-0.1350467,-0.0024743,-0.0046574,-0.0042647
1.3225000,1.3225000,1.3225000,-0.0024460,-0.0011950,-0.1342711,-0.0024460,-0.0046187,-0.0042061
1.3250000,1.3250000,1.3250000,-0.0024181,-0.0011884,-0.1335015,-0.0024181,-0.0045804,-0.0041483
1.3275000,1.3275000,1.3275000,-0.0023905,-0.0011817,-0.1327378,-0.0023905,-0.0045425,-0.0040913
1.3300000,1.3300000,1.3300000,-0.0023633,-0.0011752,-0.1319800,-0.0023633,-0.0045051,-0.0040351
1.3325000,1.3325000,1.3325000,-0.0023365,-0.0011687,-0.1312279,-0.0023365,-0.0044681,-0.0039798
1.3350000,1.3350000,1.3350000,-0.0023100,-0.0011622,-0.1304815,-0.0023100,-0.0044314,-0.0039252
1.3375000,1.3375000,1.3375000,-0.0022839,-0.0011558,-0.1297409,-0.0022839,-0.0043952,-0.0038714
1.3400000,1.3400000,1.3400000,-0.0022581,-0.0011494,-0.1290058,-0.0022581,-0.0043594,-0.0038183
1.3425000,1.3425000,1.3425000,-0.0022327,-0.0011431,-0.1282763,-0.0022327,-0.0043239,-0.0037660
1.3450000,1.3450000,1.3450000,-0.0022076,-0.0011368,-0.1275523,-0.0022076,-0.0042889,-0.0037144
1.3475000,1.3475000,1.3475000,-0.0021828,-0.0011306,-0.1268337,-0.0021828,-0.0042542,-0.0036635
1.3500000,1.3500000,1.3500000,-0.0021584,-0.0011244,-0.1261206,-0.0021584,-0.0042199,-0.0036134
1.3525000,1.3525000,1.3525000,-0.0021343,-0.0011183,-0.1254128,-0.0021343,-0.0041860,-0.0035639
1.3550000,1.3550000,1.3550000,-0.0021104,-0.0011122,-0.1247103,-0.0021104,-0.0041524,-0.0035152
1.3575000,1.3575000,1.3575000,-0.0020869,-0.0011061,-0.1240131,-0.0020869,-0.0041192,-0.0034671
1.3600000,1.3600000,1.3600000,-0.0020638,-0.0011001,-0.1233211,-0.0020638,-0.0040863,-0.0034197
1.3625000,1.3625000,1.3625000,-0.0020409,-0.0010942,-0.1226342,-0.0020409,-0.0040538,-0.0033730
1.3650000,1.3650000,1.3650000,-0.0020183,-0.0010882,-0.1219525,-0.0020183,-0.0040217,-0.0033269
1.3675000,1.3675000,1.3675000,-0.0019959,-0.0010824,-0.1212758,-0.0019959,-0.0039899,-0.0032814
1.3700000,1.3700000,1.3700000,-0.0019739,-0.0010765,-0.1206041,-0.0019739,-0.0039584,-0.0032366
1.3725000,1.3725000,1.3725000,-0.0019522,-0.0010707,-0.1199374,-0.0019522,-0.0039273,-0.0031924
1.3750000,1.3750000,1.3750000,-0.0019307,-0.0010650,-0.1192756,-0.0019307,-0.0038965,-0.0031488
1.3775000,1.3775000,1.3775000,-0.0019096,-0.0010593,-0.1186187,-0.0019096,-0.0038660,-0.0031058
1.3800000,1.3800000,1.3800000,-0.0018886,-0.0010536,-0.1179667,-0.0018886,-0.0038358,-0.0030634
1.3825000,1.3825000,1.3825000,-0.0018680,-0.0010480,-0.1173194,-0.0018680,-0.0038060,-0.0030216
1.3850000,1.3850000,1.3850000,-0.0018476,-0.0010424,-0.1166768,-0.0018476,-0.0037764,-0.0029804
1.3875000,1.3875000,1.3875000,-0.0018275,-0.0010368,-0.1160390,-0.0018275,-0.0037472,-0.0029397
1.3900000,1.3900000,1.3900000,-0.0018076,-0.0010313,-0.1154058,-0.0018076,-0.0037183,-0.0028996
1.3925000,1.3925000,1.3925000,-0.0017880,-0.0010258,-0.1147772,-0.0017880,-0.0036896,-0.0028600
1.3950000,1.3950000,1.3950000,-0.0017687,-0.0010204,-0.1141532,-0.0017687,-0.0036613,-0.0028210
1.3975000,1.3975000,1.3975000,-0.0017495,-0.0010150,-0.1135337,-0.0017495,-0.0036333,-0.0027825
1.4000000,1.4000000,1.4000000,-0.0017307,-0.0010096,-0.1129188,-0.0017307,-0.0036055,-0.0027445
1.4025000,1.4025000,1.4025000,-0.0017120,-0.0010043,-0.1123082,-0.0017120,-0.0035780,-0.0027071
1.4050000,1.4050000,1.4050000,-0.0016936,-0.0009990,-0.1117021,-0.0016936,-0.0035508,-0.0026702
1.4075000,1.4075000,1.4075000,-0.0016754,-0.0009938,-0.1111003,-0.0016754,-0.0035239,-0.0026337
1.4100000,1.4100000,1.4100000,-0.0016575,-0.0009886,-0.1105029,-0.0016575,-0.0034973,-0.0025978
1.4125000,1.4125000,1.4125000,-0.0016398,-0.0009834,-0.1099098,-0.0016398,-0.0034709,-0.0025623
1.4150000,1.4150000,1.4150000,-0.0016223,-0.0009782,-0.1093209,-0.0016223,-0.0034448,-0.0025273
1.4175000,1.4175000,1.4175000,-0.0016050,-0.0009731,-0.1087362,-0.0016050,-0.0034190,-0.0024928
1.4200000,1.4200000,1.4200000,-0.0015879,-0.0009681,-0.1081557,-0.0015879,-0.0033934,-0.0024588
1.4225000,1.4225000,1.4225000,-0.0015710,-0.0009630,-0.1075793,-0.0015710,-0.0033681,-0.0024252
1.4250000,1.4250000,1.4250000,-0.0015544,-0.0009580,-0.1070071,-0.0015544,-0.0033431,-0.0023921
1.4275000,1.4275000,1.4275000,-0.0015379,-0.0009531,-0.1064389,-0.0015379,-0.0033183,-0.0023594
1.4300000,1.4300000,1.4300000,-0.0015217,-0.0009481,-0.1058747,-0.0015217,-0.0032937,-0.0023272
1.4325000,1.4325000,1.4325000,-0.0015057,-0.0009432,-0.1053145,-0.0015057,-0.0032694,-0.0022954
1.4350000,1.4350000,1.4350000,-0.0014898,-0.0009384,-0.1047583,-0.0014898,-0.0032453,-0.0022640
1.4375000,1.4375000,1.4375000,-0.0014742,-0.0009335,-0.1042060,-0.0014742,-0.0032215,-0.0022330
1.4400000,1.4400000,1.4400000,-0.0014587,-0.0009288,-0.1036576,-0.0014587,-0.0031979,-0.0022025
1.4425000,1.4425000,1.4425000,-0.0014434,-0.0009240,-0.1031130,-0.0014434,-0.0031745,-0.0021723
1.4450000,1.4450000,1.4450000,-0.0014284,-0.0009193,-0.1025723,-0.0014284,-0.0031514,-0.0021426
1.4475000,1.4475000,1.4475000,-0.0014135,-0.0009146,-0.1020353,-0.0014135,-0.0031285,-0.0021133
1.4500000,1.4500000,1.4500000,-0.0013988,-0.0009099,-0.1015022,-0.0013988,-0.0031058,-0.0020843
1.4525000,1.4525000,1.4525000,-0.0013842,-0.0009053,-0.1009727,-0.0013842,-0.0030833,-0.0020558
1.4550000,1.4550000,1.4550000,-0.0013699,-0.0009006,-0.1004469,-0.0013699,-0.0030611,-0.0020276
1.4575000,1.4575000,1.4575000,-0.0013557,-0.0008961,-0.0999247,-0.0013557,-0.0030391,-0.0019998
1.4600000,1.4600000,1.4600000,-0.0013416,-0.0008915,-0.0994062,-0.0013416,-0.0030172,-0.0019723
1.4625000,1.4625000,1.4625000,-0.0013278,-0.0008870,-0.0988913,-0.0013278,-0.0029956,-0.0019452
1.4650000,1.4650000,1.4650000,-0.0013141,-0.0008825,-0.0983800,-0.0013141,-0.0029742,-0.0019185
1.4675000,1.4675000,1.4675000,-0.0013006,-0.0008781,-0.0978721,-0.0013006,-0.0029531,-0.0018921
1.4700000,1.4700000,1.4700000,-0.0012873,-0.0008737,-0.0973678,-0.0012873,-0.0029321,-0.0018661
1.4725000,1.4725000,1.4725000,-0.0012741,-0.0008693,-0.0968669,-0.0012741,-0.0029113,-0.0018404
1.4750000,1.4750000,1.4750000,-0.0012610,-0.0008649,-0.0963695,-0.0012610,-0.0028907,-0.0018151
1.4775000,1.4775000,1.4775000,-0.0012481,-0.0008606,-0.0958755,-0.0012481,-0.0028703,-0.0017901
1.4800000,1.4800000,1.4800000,-0.0012354,-0.0008563,-0.0953849,-0.0012354,-0.0028501,-0.0017654
1.4825000,1.4825000,1.4825000,-0.0012228,-0.0008520,-0.0948976,-0.0012228,-0.0028301,-0.0017411
1.4850000,1.4850000,1.4850000,-0.0012104,-0.0008477,-0.0944136,-0.0012104,-0.0028103,-0.0017170
1.4875000,1.4875000,1.4875000,-0.0011981,-0.0008435,-0.0939330,-0.0011981,-0.0027907,-0.0016933
1.4900000,1.4900000,1.4900000,-0.0011860,-0.0008393,-0.0934556,-0.0011860,-0.0027713,-0.0016699
1.4925000,1.4925000,1.4925000,-0.0011740,-0.0008352,-0.0929814,-0.0011740,-0.0027520,-0.0016468
1.4950000,1.4950000,1.4950000,-0.0011622,-0.0008310,-0.0925105,-0.0011622,-0.0027329,-0.0016240
1.4975000,1.4975000,1.4975000,-0.0011504,-0.0008269,-0.0920427,-0.0011504,-0.0027141,-0.0016015
1.5000000,1.5000000,1.5000000,-0.0011389,-0.0008228,-0.0915781,-0.0011389,-0.0026953,-0.0015793
1.5025000,1.5025000,1.5025000,-0.0011274,-0.0008188,-0.0911167,-0.0011274,-0.0026768,-0.0015573
1.5050000,1.5050000,1.5050000,-0.0011161,-0.0008147,-0.0906583,-0.0011161,-0.0026584,-0.0015357
1.5075000,1.5075000,1.5075000,-0.0011050,-0.0008107,-0.0902030,-0.0011050,-0.0026402,-0.0015144
1.5100000,1.5100000,1.5100000,-0.0010939,-0.0008068,-0.0897508,-0.0010939,-0.0026222,-0.0014933
1.5125000,1.5125000,1.5125000,-0.0010830,-0.0008028,-0.0893016,-0.0010830,-0.0026043,-0.0014725
1.5150000,1.5150000,1.5150000,-0.0010722,-0.0007989,-0.0888554,-0.0010722,-0.0025866,-0.0014519
1.5175000,1.5175000,1.5175000,-0.0010616,-0.0007950,-0.0884121,-0.0010616,-0.0025691,-0.0014317
1.5200000,1.5200000,1.5200000,-0.0010510,-0.0007911,-0.0879718,-0.0010510,-0.0025517,-0.0014116
1.5225000,1.5225000,1.5225000,-0.0010406,-0.0007873,-0.0875345,-0.0010406,-0.0025345,-0.0013919
1.5250000,1.5250000,1.5250000,-0.0010303,-0.0007834,-0.0871000,-0.0010303,-0.0025174,-0.0013724
1.5275000,1.5275000,1.5275000,-0.0010202,-0.0007796,-0.0866685,-0.0010202,-0.0025005,-0.0013531
1.5300000,1.5300000,1.5300000,-0.0010101,-0.0007759,-0.0862397,-0.0010101,-0.0024838,-0.0013341
1.5325000,1.5325000,1.5325000,-0.0010002,-0.0007721,-0.0858138,-0.0010002,-0.0024672,-0.0013154
1.5350000,1.5350000,1.5350000,-0.0009903,-0.0007684,-0.0853908,-0.0009903,-0.0024507,-0.0012969
1.5375000,1.5375000,1.5375000,-0.0009806,-0.0007647,-0.0849705,-0.0009806,-0.0024344,-0.0012786
1.5400000,1.5400000,1.5400000,-0.0009710,-0.0007610,-0.0845529,-0.0009710,-0.0024183,-0.0012606
1.5425000,1.5425000,1.5425000,-0.0009615,-0.0007573,-0.0841381,-0.0009615,-0.0024023,-0.0012428
1.5450000,1.5450000,1.5450000,-0.0009521,-0.0007537,-0.0837260,-0.0009521,-0.0023864,-0.0012252
1.5475000,1.5475000,1.5475000,-0.0009429,-0.0007501,-0.0833167,-0.0009429,-0.0023707,-0.0012078
1.5500000,1.5500000,1.5500000,-0.0009337,-0.0007465,-0.0829099,-0.0009337,-0.0023551,-0.0011907
1.5525000,1.5525000,1.5525000,-0.0009246,-0.0007429,-0.0825059,-0.0009246,-0.0023397,-0.0011738
1.5550000,1.5550000,1.5550000,-0.0009157,-0.0007394,-0.0821044,-0.0009157,-0.0023244,-0.0011571
1.5575000,1.5575000,1.5575000,-0.0009068,-0.0007359,-0.0817056,-0.0009068,-0.0023092,-0.0011406
1.5600000,1.5600000,1.5600000,-0.0008980,-0.0007324,-0.0813094,-0.0008980,-0.0022942,-0.0011243
1.5625000,1.5625000,1.5625000,-0.0008894,-0.0007289,-0.0809157,-0.0008894,-0.0022793,-0.0011082
1.5650000,1.5650000,1.5650000,-0.0008808,-0.0007255,-0.0805245,-0.0008808,-0.0022645,-0.0010924
1.5675000,1.5675000,1.5675000,-0.0008723,-0.0007220,-0.0801359,-0.0008723,-0.0022499,-0.0010767
1.5700000,1.5700000,1.5700000,-0.0008639,-0.0007186,-0.0797498,-0.0008639,-0.0022354,-0.0010612
1.5725000,1.5725000,1.5725000,-0.0008557,-0.0007152,-0.0793662,-0.0008557,-0.0022210,-0.0010460
1.5750000,1.5750000,1.5750000,-0.0008475,-0.0007119,-0.0789850,-0.0008475,-0.0022067,-0.0010309
1.5775000,1.5775000,1.5775000,-0.0008394,-0.0007085,-0.0786063,-0.0008394,-0.0021926,-0.0010160
1.5800000,1.5800000,1.5800000,-0.0008314,-0.0007052,-0.0782300,-0.0008314,-0.0021786,-0.0010013
1.5825000,1.5825000,1.5825000,-0.0008234,-0.0007019,-0.0778561,-0.0008234,-0.0021647,-0.0009868
1.5850000,1.5850000,1.5850000,-0.0008156,-0.0006986,-0.0774846,-0.0008156,-0.0021509,-0.0009725
1.5875000,1.5875000,1.5875000,-0.0008079,-0.0006953,-0.0771155,-0.0008079,-0.0021373,-0.0009583
1.5900000,1.5900000,1.5900000,-0.0008002,-0.0006921,-0.0767487,-0.0008002,-0.0021237,-0.0009443
1.5925000,1.5925000,1.5925000,-0.0007926,-0.0006889,-0.0763842,-0.0007926,-0.0021103,-0.0009305
1.5950000,1.5950000,1.5950000,-0.0007851,-0.0006857,-0.0760221,-0.0007851,-0.0020970,-0.0009169
1.5975000,1.5975000,1.5975000,-0.0007777,-0.0006825,-0.0756622,-0.0007777,-0.0020838,-0.0009035
