# r[nm],d[nm],daligned[nm],U(d)[kj/mol],V(d)[e/nm],Uslab(d)[kJ/mol],UC(d)[kJ/mol],UK(d)[kJ/mol],UCl(d)[kJ/mol]
0.1850000,0.1850000,0.1850000,1651.6130565,-0.0317618,510.3799617,1651.6130565,1040.1295326,inf
0.1875000,0.1875000,0.1875000,1445.4243658,-0.0340157,437.4760168,1445.4243658,909.1852653,inf
0.1900000,0.1900000,0.1900000,1266.7256214,-0.0362758,375.7292184,1266.7256214,795.7416117,inf
0.1925000,0.1925000,0.1925000,1111.5997340,-0.0383484,323.3016830,1111.5997340,697.3241271,inf
0.1950000,0.1950000,0.1950000,976.7219932,-0.0402092,278.6812419,976.7219932,611.8158982,inf
0.1975000,0.1975000,0.1975000,859.2670351,-0.0418645,240.6196641,859.2670351,537.4136130,inf
0.2000000,0.2000000,0.2000000,756.8296920,-0.0433277,208.0833477,756.8296920,472.5808977,inf
0.2025000,0.2025000,0.2025000,667.3588170,-0.0446141,180.2138167,667.3588170,416.0071527,inf
0.2050000,0.2050000,0.2050000,589.1020360,-0.0457398,156.2959566,589.1020360,366.5726012,inf
0.2075000,0.2075000,0.2075000,520.5595696,-0.0467216,135.7323824,520.5595696,323.3188979,inf
0.2100000,0.2100000,0.2100000,460.4455707,-0.0475770,118.0226679,460.4455707,285.4244673,inf
0.2125000,0.2125000,0.2125000,407.6556981,-0.0483248,102.7463817,407.6556981,252.1838061,1752.3755358
0.2150000,0.2150000,0.2150000,361.2398727,-0.0489854,89.5490308,361.2398727,222.9900966,1558.5062477
0.2175000,0.2175000,0.2175000,320.3793481,-0.0495805,78.1302525,320.3793481,197.3205810,1387.4386128
0.2200000,0.2200000,0.2200000,284.3673846,-0.0501335,68.2340594,284.3673846,174.7242377,1236.2990682
0.2225000,0.2225000,0.2225000,252.5929334,-0.0506686,59.6413146,252.5929334,154.8113784,1102.6021255
0.2250000,0.2250000,0.2250000,224.5268452,-0.0512099,52.1644816,224.5268452,137.2448468,984.1944926
0.2275000,0.2275000,0.2275000,199.7101960,-0.0517805,45.6441013,199.7101960,121.7325540,879.2077146
0.2300000,0.2300000,0.2300000,177.7443902,-0.0524004,39.9459507,177.7443902,108.0211322,786.0179672
0.2325000,0.2325000,0.2325000,158.2827574,-0.0530855,34.9579297,158.2827574,95.8905248,703.2118667
0.2350000,0.2350000,0.2350000,141.0234030,-0.0538455,30.5863689,141.0234030,85.1493634,629.5573468
0.2375000,0.2375000,0.2375000,125.7031111,-0.0546835,26.7521069,125.7031111,75.6310117,563.9788134
0.2400000,0.2400000,0.2400000,112.0921304,-0.0555956,23.3867740,112.0921304,67.1901733,505.5359116
0.2425000,0.2425000,0.2425000,99.9897017,-0.0565711,20.4289207,99.9897017,59.6999824,453.4053530
0.2450000,0.2450000,0.2450000,89.2202110,-0.0575935,17.8186761,89.2202110,53.0495062,406.8653345
0.2475000,0.2475000,0.2475000,79.6298715,-0.0586423,15.4911930,79.6298715,47.1416012,365.2821584
0.2500000,0.2500000,0.2500000,71.0838561,-0.0596948,13.3743620,71.0838561,41.8910726,328.0987229
0.2525000,0.2525000,0.2525000,63.4638169,-0.0607278,11.3987175,63.4638169,37.2230927,294.8246071
0.2550000,0.2550000,0.2550000,56.6657374,-0.0617195,9.5175595,56.6657374,33.0718400,265.0275159
0.2575000,0.2575000,0.2575000,50.5980740,-0.0626504,7.7197229,50.5980740,29.3793261,238.3258898
0.2600000,0.2600000,0.2600000,45.1801471,-0.0635044,6.0215856,45.1801471,26.0943819,214.3825152
0.2625000,0.2625000,0.2625000,40.3407497,-0.0642690,4.4476361,40.3407497,23.1717771,192.8989959
0.2650000,0.2650000,0.2650000,36.0169424,-0.0649358,3.0162067,36.0169424,20.5714553,173.6109672
0.2675000,0.2675000,0.2675000,32.1530087,-0.0655001,1.7351090,32.1530087,18.2578678,156.2839531
0.2700000,0.2700000,0.2700000,28.6995478,-0.0659612,0.6030755,28.6995478,16.1993957,140.7097766
0.2725000,0.2725000,0.2725000,25.6126845,-0.0663222,-0.3872452,25.6126845,14.3678539,126.7034469
0.2750000,0.2750000,0.2750000,22.8533797,-0.0665903,-1.2466420,22.8533797,12.7380709,114.1004556
0.2775000,0.2775000,0.2775000,20.3868305,-0.0667766,-1.9874657,20.3868305,11.2875389,102.7544191
0.2800000,0.2800000,0.2800000,18.1819491,-0.0668965,-2.6224199,18.1819491,9.9961274,92.5350169
0.2825000,0.2825000,0.2825000,16.2109148,-0.0669686,-3.1638241,16.2109148,8.8458514,83.3261786
0.2850000,0.2850000,0.2850000,14.4487929,-0.0670138,-3.6231937,14.4487929,7.8206813,75.0244820
0.2875000,0.2875000,0.2875000,12.8732140,-0.0670542,-4.0110323,12.8732140,6.9063824,67.5377312
0.2900000,0.2900000,0.2900000,11.4641065,-0.0671103,-4.3367673,11.4641065,6.0903720,60.7836911
0.2925000,0.2925000,0.2925000,10.2034749,-0.0671995,-4.6087746,10.2034749,5.3615822,54.6889588
0.2950000,0.2950000,0.2950000,9.0752126,-0.0673338,-4.8344474,9.0752126,4.7103235,49.1879561
0.2975000,0.2975000,0.2975000,8.0649415,-0.0675188,-5.0202802,8.0649415,4.1281430,44.2220322
0.3000000,0.3000000,0.3000000,7.1598686,-0.0677530,-5.1719532,7.1598686,3.6076795,39.7386652
0.3025000,0.3025000,0.3025000,6.3486512,-0.0680278,-5.2944175,6.3486512,3.1425187,35.6907541
0.3050000,0.3050000,0.3050000,5.6212667,-0.0683295,-5.3919835,5.6212667,2.7270513,32.0359923
0.3075000,0.3075000,0.3075000,4.9688821,-0.0686400,-5.4684081,4.9688821,2.3563425,28.7363187
0.3100000,0.3100000,0.3100000,4.3837249,-0.0689398,-5.5269756,4.3837249,2.0260150,25.7574363
0.3125000,0.3125000,0.3125000,3.8589549,-0.0692101,-5.5705635,3.8589549,1.7321501,23.0683953
0.3150000,0.3150000,0.3150000,3.3885408,-0.0694344,-5.6016941,3.3885408,1.4712072,20.6412326
0.3175000,0.3175000,0.3175000,2.9671457,-0.0696005,-5.6225733,2.9671457,1.2399606,18.4506598
0.3200000,0.3200000,0.3200000,2.5900222,-0.0697011,-5.6351220,2.5900222,1.0354513,16.4737956
0.3225000,0.3225000,0.3225000,2.2529212,-0.0697342,-5.6409959,2.2529212,0.8549523,14.6899324
0.3250000,0.3250000,0.3250000,1.9520143,-0.0697024,-5.6415934,1.9520143,0.6959422,13.0803345
0.3275000,0.3275000,0.3275000,1.6838290,-0.0696119,-5.6380544,1.6838290,0.5560873,11.6280598
0.3300000,0.3300000,0.3300000,1.4451962,-0.0694718,-5.6312580,1.4451962,0.4332270,10.3178028
0.3325000,0.3325000,0.3325000,1.2332087,-0.0692923,-5.6218329,1.2332087,0.3253630,9.1357528
0.3350000,0.3350000,0.3350000,1.0451888,-0.0690840,-5.6101838,1.0451888,0.2306504,8.0694652
0.3375000,0.3375000,0.3375000,0.8786645,-0.0688571,-5.5965322,0.8786645,0.1473903,7.1077413
0.3400000,0.3400000,0.3400000,0.7313505,-0.0686215,-5.5809658,0.7313505,0.0740238,6.2405155
0.3425000,0.3425000,0.3425000,0.6011349,-0.0683860,-5.5634903,0.6011349,0.0091272,5.4587475
0.3450000,0.3450000,0.3450000,0.4860683,-0.0681593,-5.5440790,0.4860683,-0.0485926,4.7543198
0.3475000,0.3475000,0.3475000,0.3843547,-0.0679497,-5.5227189,0.3843547,-0.1003016,4.1199396
0.3500000,0.3500000,0.3500000,0.2943439,-0.0677654,-5.4994452,0.2943439,-0.1470419,3.5490475
0.3525000,0.3525000,0.3525000,0.2145242,-0.0676140,-5.4743593,0.2145242,-0.1897345,3.0357330
0.3550000,0.3550000,0.3550000,0.1435156,-0.0675025,-5.4476267,0.1435156,-0.2291798,2.5746582
0.3575000,0.3575000,0.3575000,0.0800627,-0.0674360,-5.4194596,0.0800627,-0.2660579,2.1609906
0.3600000,0.3600000,0.3600000,0.0230280,-0.0674179,-5.3900915,0.0230280,-0.3009280,1.7903435
0.3625000,0.3625000,0.3625000,-0.0286128,-0.0674487,-5.3597577,-0.0286128,-0.3342301,1.4587245
0.3650000,0.3650000,0.3650000,-0.0757737,-0.0675259,-5.3286860,-0.0757737,-0.3662902,1.1624905
0.3675000,0.3675000,0.3675000,-0.1192595,-0.0676446,-5.2970991,-0.1192595,-0.3973306,0.8983086
0.3700000,0.3700000,0.3700000,-0.1597644,-0.0677969,-5.2652224,-0.1597644,-0.4274850,0.6631229
0.3725000,0.3725000,0.3725000,-0.1978702,-0.0679733,-5.2332880,-0.1978702,-0.4568161,0.4541250
0.3750000,0.3750000,0.3750000,-0.2340470,-0.0681628,-5.2015291,-0.2340470,-0.4853343,0.2687301
0.3775000,0.3775000,0.3775000,-0.2686561,-0.0683535,-5.1701625,-0.2686561,-0.5130140,0.1045558
0.3800000,0.3800000,0.3800000,-0.3019588,-0.0685336,-5.1393660,-0.3019588,-0.5398060,-0.0405950
0.3825000,0.3825000,0.3825000,-0.3341291,-0.0686913,-5.1092577,-0.3341291,-0.5656468,-0.1687483
0.3850000,0.3850000,0.3850000,-0.3652692,-0.0688149,-5.0798845,-0.3652692,-0.5904630,-0.2817715
0.3875000,0.3875000,0.3875000,-0.3954272,-0.0688928,-5.0512177,-0.3954272,-0.6141731,-0.3813835
0.3900000,0.3900000,0.3900000,-0.4246126,-0.0689136,-5.0231521,-0.4246126,-0.6366878,-0.4691649
0.3925000,0.3925000,0.3925000,-0.4528095,-0.0688663,-4.9955059,-0.4528095,-0.6579108,-0.5465663
0.3950000,0.3950000,0.3950000,-0.4799850,-0.0687402,-4.9680245,-0.4799850,-0.6777399,-0.6149166
0.3975000,0.3975000,0.3975000,-0.5060948,-0.0685260,-4.9403909,-0.5060948,-0.6960705,-0.6754297
0.4000000,0.4000000,0.4000000,-0.5310846,-0.0682157,-4.9122442,-0.5310846,-0.7128024,-0.7292095
0.4025000,0.4025000,0.4025000,-0.5548905,-0.0678035,-4.8832067,-0.5548905,-0.7278484,-0.7772528
0.4050000,0.4050000,0.4050000,-0.5774388,-0.0672863,-4.8529126,-0.5774388,-0.7411467,-0.8204497
0.4075000,0.4075000,0.4075000,-0.5986474,-0.0666641,-4.8210348,-0.5986474,-0.7526724,-0.8595832
0.4100000,0.4100000,0.4100000,-0.6184299,-0.0659398,-4.7873057,-0.6184299,-0.7624485,-0.8953277
0.4125000,0.4125000,0.4125000,-0.6367024,-0.0651197,-4.7515295,-0.6367024,-0.7705540,-0.9282491
0.4150000,0.4150000,0.4150000,-0.6533942,-0.0642119,-4.7135867,-0.6533942,-0.7771253,-0.9588075
0.4175000,0.4175000,0.4175000,-0.6684599,-0.0632262,-4.6734314,-0.6684599,-0.7823528,-0.9873630
0.4200000,0.4200000,0.4200000,-0.6818921,-0.0621727,-4.6310839,-0.6818921,-0.7864716,-1.0141866
0.4225000,0.4225000,0.4225000,-0.6937318,-0.0610603,-4.5866205,-0.6937318,-0.7897467,-1.0394733
0.4250000,0.4250000,0.4250000,-0.7040745,-0.0598957,-4.5401623,-0.7040745,-0.7924565,-1.0633576
0.4275000,0.4275000,0.4275000,-0.7130711,-0.0586822,-4.4918634,-0.7130711,-0.7948743,-1.0859291
0.4300000,0.4300000,0.4300000,-0.7209231,-0.0574191,-4.4419004,-0.7209231,-0.7972503,-1.1072448
0.4325000,0.4325000,0.4325000,-0.7278719,-0.0561015,-4.3904637,-0.7278719,-0.7997952,-1.1273396
0.4350000,0.4350000,0.4350000,-0.7341849,-0.0547203,-4.3377498,-0.7341849,-0.8026665,-1.1462311
0.4375000,0.4375000,0.4375000,-0.7401385,-0.0532632,-4.2839548,-0.7401385,-0.8059586,-1.1639220
0.4400000,0.4400000,0.4400000,-0.7459994,-0.0517162,-4.2292702,-0.7459994,-0.8096978,-1.1804010
0.4425000,0.4425000,0.4425000,-0.7520060,-0.0500656,-4.1738797,-0.7520060,-0.8138443,-1.1956425
0.4450000,0.4450000,0.4450000,-0.7583502,-0.0483003,-4.1179564,-0.7583502,-0.8183006,-1.2096091
0.4475000,0.4475000,0.4475000,-0.7651629,-0.0464143,-4.0616615,-0.7651629,-0.8229279,-1.2222567
0.4500000,0.4500000,0.4500000,-0.7725040,-0.0444083,-4.0051436,-0.7725040,-0.8275667,-1.2335433
0.4525000,0.4525000,0.4525000,-0.7803600,-0.0422905,-3.9485384,-0.7803600,-0.8320586,-1.2434399
0.4550000,0.4550000,0.4550000,-0.7886497,-0.0400765,-3.8919686,-0.7886497,-0.8362638,-1.2519421
0.4575000,0.4575000,0.4575000,-0.7972388,-0.0377873,-3.8355444,-0.7972388,-0.8400700,-1.2590813
0.4600000,0.4600000,0.4600000,-0.8059602,-0.0354481,-3.7793642,-0.8059602,-0.8433910,-1.2649316
0.4625000,0.4625000,0.4625000,-0.8146365,-0.0330851,-3.7235151,-0.8146365,-0.8461586,-1.2696136
0.4650000,0.4650000,0.4650000,-0.8230984,-0.0307236,-3.6680737,-0.8230984,-0.8483111,-1.2732924
0.4675000,0.4675000,0.4675000,-0.8311964,-0.0283870,-3.6131067,-0.8311964,-0.8497841,-1.2761723
0.4700000,0.4700000,0.4700000,-0.8388022,-0.0260959,-3.5586724,-0.8388022,-0.8505059,-1.2784866
0.4725000,0.4725000,0.4725000,-0.8458049,-0.0238681,-3.5048205,-0.8458049,-0.8503987,-1.2804846
0.4750000,0.4750000,0.4750000,-0.8521021,-0.0217195,-3.4515936,-0.8521021,-0.8493837,-1.2824146
0.4775000,0.4775000,0.4775000,-0.8575942,-0.0196640,-3.3990277,-0.8575942,-0.8473883,-1.2845063
0.4800000,0.4800000,0.4800000,-0.8621804,-0.0177137,-3.3471526,-0.8621804,-0.8443536,-1.2869521
0.4825000,0.4825000,0.4825000,-0.8657600,-0.0158787,-3.2959929,-0.8657600,-0.8402397,-1.2898914
0.4850000,0.4850000,0.4850000,-0.8682372,-0.0141673,-3.2455685,-0.8682372,-0.8350296,-1.2934003
0.4875000,0.4875000,0.4875000,-0.8695272,-0.0125850,-3.1958948,-0.8695272,-0.8287292,-1.2974877
0.4900000,0.4900000,0.4900000,-0.8695625,-0.0111350,-3.1469837,-0.8695625,-0.8213671,-1.3021005
0.4925000,0.4925000,0.4925000,-0.8682977,-0.0098180,-3.0988437,-0.8682977,-0.8129908,-1.3071342
0.4950000,0.4950000,0.4950000,-0.8657125,-0.0086320,-3.0514801,-0.8657125,-0.8036643,-1.3124480
0.4975000,0.4975000,0.4975000,-0.8618118,-0.0075731,-3.0048958,-0.8618118,-0.7934633,-1.3178798
0.5000000,0.5000000,0.5000000,-0.8566249,-0.0066358,-2.9590916,-0.8566249,-0.7824716,-1.3232574
0.5025000,0.5025000,0.5025000,-0.8502023,-0.0058128,-2.9140660,-0.8502023,-0.7707779,-1.3284066
0.5050000,0.5050000,0.5050000,-0.8426122,-0.0050965,-2.8698159,-0.8426122,-0.7584724,-1.3331551
0.5075000,0.5075000,0.5075000,-0.8339365,-0.0044782,-2.8263368,-0.8339365,-0.7456446,-1.3373332
0.5100000,0.5100000,0.5100000,-0.8242668,-0.0039494,-2.7836226,-0.8242668,-0.7323810,-1.3407755
0.5125000,0.5125000,0.5125000,-0.8137005,-0.0035013,-2.7416665,-0.8137005,-0.7187642,-1.3433226
0.5150000,0.5150000,0.5150000,-0.8023377,-0.0031255,-2.7004604,-0.8023377,-0.7048714,-1.3448240
0.5175000,0.5175000,0.5175000,-0.7902785,-0.0028141,-2.6599955,-0.7902785,-0.6907741,-1.3451430
0.5200000,0.5200000,0.5200000,-0.7776206,-0.0025594,-2.6202623,-0.7776206,-0.6765377,-1.3441610
0.5225000,0.5225000,0.5225000,-0.7644580,-0.0023546,-2.5812509,-0.7644580,-0.6622216,-1.3417827
0.5250000,0.5250000,0.5250000,-0.7508793,-0.0021932,-2.5429507,-0.7508793,-0.6478788,-1.3379387
0.5275000,0.5275000,0.5275000,-0.7369676,-0.0020693,-2.5053507,-0.7369676,-0.6335566,-1.3325880
0.5300000,0.5300000,0.5300000,-0.7227994,-0.0019779,-2.4684399,-0.7227994,-0.6192967,-1.3257177
0.5325000,0.5325000,0.5325000,-0.7084447,-0.0019141,-2.4322068,-0.7084447,-0.6051357,-1.3173419
0.5350000,0.5350000,0.5350000,-0.6939670,-0.0018738,-2.3966398,-0.6939670,-0.5911053,-1.3074992
0.5375000,0.5375000,0.5375000,-0.6794233,-0.0018533,-2.3617271,-0.6794233,-0.5772327,-1.2962493
0.5400000,0.5400000,0.5400000,-0.6648646,-0.0018494,-2.3274570,-0.6648646,-0.5635413,-1.2836695
0.5425000,0.5425000,0.5425000,-0.6503361,-0.0018593,-2.2938175,-0.6503361,-0.5500505,-1.2698502
0.5450000,0.5450000,0.5450000,-0.6358775,-0.0018803,-2.2607970,-0.6358775,-0.5367769,-1.2548918
0.5475000,0.5475000,0.5475000,-0.6215234,-0.0019105,-2.2283836,-0.6215234,-0.5237338,-1.2389005
0.5500000,0.5500000,0.5500000,-0.6073040,-0.0019478,-2.1965656,-0.6073040,-0.5109321,-1.2219859
0.5525000,0.5525000,0.5525000,-0.5932453,-0.0019908,-2.1653312,-0.5932453,-0.4983804,-1.2042577
0.5550000,0.5550000,0.5550000,-0.5793692,-0.0020380,-2.1346691,-0.5793692,-0.4860851,-1.1858243
0.5575000,0.5575000,0.5575000,-0.5656944,-0.0020882,-2.1045676,-0.5656944,-0.4740511,-1.1667903
0.5600000,0.5600000,0.5600000,-0.5522366,-0.0021405,-2.0750156,-0.5522366,-0.4622814,-1.1472559
0.5625000,0.5625000,0.5625000,-0.5390086,-0.0021939,-2.0460020,-0.5390086,-0.4507780,-1.1273157
0.5650000,0.5650000,0.5650000,-0.5260208,-0.0022478,-2.0175156,-0.5260208,-0.4395414,-1.1070580
0.5675000,0.5675000,0.5675000,-0.5132813,-0.0023016,-1.9895457,-0.5132813,-0.4285712,-1.0865647
0.5700000,0.5700000,0.5700000,-0.5007966,-0.0023547,-1.9620817,-0.5007966,-0.4178662,-1.0659109
0.5725000,0.5725000,0.5725000,-0.4885711,-0.0024068,-1.9351130,-0.4885711,-0.4074245,-1.0451650
0.5750000,0.5750000,0.5750000,-0.4766081,-0.0024576,-1.9086294,-0.4766081,-0.3972432,-1.0243893
0.5775000,0.5775000,0.5775000,-0.4649093,-0.0025067,-1.8826208,-0.4649093,-0.3873193,-1.0036394
0.5800000,0.5800000,0.5800000,-0.4534756,-0.0025539,-1.8570773,-0.4534756,-0.3776490,-0.9829653
0.5825000,0.5825000,0.5825000,-0.4423065,-0.0025991,-1.8319892,-0.4423065,-0.3682284,-0.9624110
0.5850000,0.5850000,0.5850000,-0.4314011,-0.0026422,-1.8073469,-0.4314011,-0.3590531,-0.9420158
0.5875000,0.5875000,0.5875000,-0.4207574,-0.0026830,-1.7831411,-0.4207574,-0.3501185,-0.9218138
0.5900000,0.5900000,0.5900000,-0.4103730,-0.0027216,-1.7593626,-0.4103730,-0.3414199,-0.9018347
0.5925000,0.5925000,0.5925000,-0.4002448,-0.0027578,-1.7360025,-0.4002448,-0.3329523,-0.8821041
0.5950000,0.5950000,0.5950000,-0.3903696,-0.0027917,-1.7130521,-0.3903696,-0.3247107,-0.8626441
0.5975000,0.5975000,0.5975000,-0.3807433,-0.0028233,-1.6905027,-0.3807433,-0.3166899,-0.8434732
0.6000000,0.6000000,0.6000000,-0.3713620,-0.0028526,-1.6683460,-0.3713620,-0.3088848,-0.8246068
0.6025000,0.6025000,0.6025000,-0.3622213,-0.0028796,-1.6465737,-0.3622213,-0.3012902,-0.8060579
0.6050000,0.6050000,0.6050000,-0.3533165,-0.0029044,-1.6251778,-0.3533165,-0.2939009,-0.7878366
0.6075000,0.6075000,0.6075000,-0.3446430,-0.0029270,-1.6041504,-0.3446430,-0.2867117,-0.7699512
0.6100000,0.6100000,0.6100000,-0.3361958,-0.0029475,-1.5834840,-0.3361958,-0.2797175,-0.7524077
0.6125000,0.6125000,0.6125000,-0.3279702,-0.0029659,-1.5631709,-0.3279702,-0.2729132,-0.7352105
0.6150000,0.6150000,0.6150000,-0.3199610,-0.0029824,-1.5432039,-0.3199610,-0.2662938,-0.7183626
0.6175000,0.6175000,0.6175000,-0.3121633,-0.0029969,-1.5235757,-0.3121633,-0.2598543,-0.7018655
0.6200000,0.6200000,0.6200000,-0.3045720,-0.0030096,-1.5042794,-0.3045720,-0.2535898,-0.6857194
0.6225000,0.6225000,0.6225000,-0.2971820,-0.0030205,-1.4853081,-0.2971820,-0.2474955,-0.6699236
0.6250000,0.6250000,0.6250000,-0.2899885,-0.0030297,-1.4666552,-0.2899885,-0.2415667,-0.6544765
0.6275000,0.6275000,0.6275000,-0.2829864,-0.0030373,-1.4483140,-0.2829864,-0.2357989,-0.6393755
0.6300000,0.6300000,0.6300000,-0.2761708,-0.0030433,-1.4302782,-0.2761708,-0.2301874,-0.6246177
0.6325000,0.6325000,0.6325000,-0.2695369,-0.0030477,-1.4125417,-0.2695369,-0.2247280,-0.6101992
0.6350000,0.6350000,0.6350000,-0.2630799,-0.0030508,-1.3950981,-0.2630799,-0.2194162,-0.5961158
0.6375000,0.6375000,0.6375000,-0.2567951,-0.0030525,-1.3779417,-0.2567951,-0.2142479,-0.5823629
0.6400000,0.6400000,0.6400000,-0.2506778,-0.0030529,-1.3610666,-0.2506778,-0.2092190,-0.5689353
0.6425000,0.6425000,0.6425000,-0.2447235,-0.0030521,-1.3444672,-0.2447235,-0.2043254,-0.5558280
0.6450000,0.6450000,0.6450000,-0.2389278,-0.0030502,-1.3281377,-0.2389278,-0.1995633,-0.5430351
0.6475000,0.6475000,0.6475000,-0.2332864,-0.0030471,-1.3120730,-0.2332864,-0.1949289,-0.5305511
0.6500000,0.6500000,0.6500000,-0.2277949,-0.0030430,-1.2962676,-0.2277949,-0.1904185,-0.5183699
0.6525000,0.6525000,0.6525000,-0.2224492,-0.0030378,-1.2807163,-0.2224492,-0.1860285,-0.5064857
0.6550000,0.6550000,0.6550000,-0.2172453,-0.0030318,-1.2654142,-0.2172453,-0.1817555,-0.4948921
0.6575000,0.6575000,0.6575000,-0.2121792,-0.0030248,-1.2503562,-0.2121792,-0.1775960,-0.4835832
0.6600000,0.6600000,0.6600000,-0.2072470,-0.0030171,-1.2355376,-0.2072470,-0.1735467,-0.4725527
0.6625000,0.6625000,0.6625000,-0.2024449,-0.0030085,-1.2209536,-0.2024449,-0.1696044,-0.4617943
0.6650000,0.6650000,0.6650000,-0.1977693,-0.0029992,-1.2065997,-0.1977693,-0.1657661,-0.4513020
0.6675000,0.6675000,0.6675000,-0.1932167,-0.0029892,-1.1924712,-0.1932167,-0.1620288,-0.4410696
0.6700000,0.6700000,0.6700000,-0.1887834,-0.0029786,-1.1785639,-0.1887834,-0.1583894,-0.4310909
0.6725000,0.6725000,0.6725000,-0.1844663,-0.0029673,-1.1648734,-0.1844663,-0.1548452,-0.4213600
0.6750000,0.6750000,0.6750000,-0.1802619,-0.0029555,-1.1513955,-0.1802619,-0.1513934,-0.4118707
0.6775000,0.6775000,0.6775000,-0.1761670,-0.0029431,-1.1381262,-0.1761670,-0.1480314,-0.4026173
0.6800000,0.6800000,0.6800000,-0.1721786,-0.0029303,-1.1250613,-0.1721786,-0.1447564,-0.3935939
0.6825000,0.6825000,0.6825000,-0.1682936,-0.0029169,-1.1121971,-0.1682936,-0.1415662,-0.3847948
0.6850000,0.6850000,0.6850000,-0.1645092,-0.0029032,-1.0995295,-0.1645092,-0.1384581,-0.3762144
0.6875000,0.6875000,0.6875000,-0.1608223,-0.0028890,-1.0870550,-0.1608223,-0.1354298,-0.3678470
0.6900000,0.6900000,0.6900000,-0.1572304,-0.0028745,-1.0747698,-0.1572304,-0.1324791,-0.3596874
0.6925000,0.6925000,0.6925000,-0.1537307,-0.0028596,-1.0626704,-0.1537307,-0.1296037,-0.3517301
0.6950000,0.6950000,0.6950000,-0.1503205,-0.0028444,-1.0507532,-0.1503205,-0.1268015,-0.3439701
0.6975000,0.6975000,0.6975000,-0.1469974,-0.0028289,-1.0390148,-0.1469974,-0.1240703,-0.3364021
0.7000000,0.7000000,0.7000000,-0.1437589,-0.0028131,-1.0274520,-0.1437589,-0.1214082,-0.3290212
0.7025000,0.7025000,0.7025000,-0.1406025,-0.0027971,-1.0160613,-0.1406025,-0.1188131,-0.3218225
0.7050000,0.7050000,0.7050000,-0.1375261,-0.0027808,-1.0048396,-0.1375261,-0.1162833,-0.3148014
0.7075000,0.7075000,0.7075000,-0.1345273,-0.0027644,-0.9937839,-0.1345273,-0.1138168,-0.3079530
0.7100000,0.7100000,0.7100000,-0.1316040,-0.0027478,-0.9828909,-0.1316040,-0.1114118,-0.3012730
0.7125000,0.7125000,0.7125000,-0.1287540,-0.0027309,-0.9721577,-0.1287540,-0.1090667,-0.2947568
0.7150000,0.7150000,0.7150000,-0.1259754,-0.0027140,-0.9615815,-0.1259754,-0.1067796,-0.2884002
0.7175000,0.7175000,0.7175000,-0.1232660,-0.0026969,-0.9511593,-0.1232660,-0.1045491,-0.2821989
0.7200000,0.7200000,0.7200000,-0.1206240,-0.0026797,-0.9408883,-0.1206240,-0.1023735,-0.2761489
0.7225000,0.7225000,0.7225000,-0.1180475,-0.0026624,-0.9307657,-0.1180475,-0.1002513,-0.2702462
0.7250000,0.7250000,0.7250000,-0.1155346,-0.0026450,-0.9207890,-0.1155346,-0.0981810,-0.2644868
0.7275000,0.7275000,0.7275000,-0.1130837,-0.0026275,-0.9109555,-0.1130837,-0.0961612,-0.2588671
0.7300000,0.7300000,0.7300000,-0.1106930,-0.0026099,-0.9012625,-0.1106930,-0.0941904,-0.2533832
0.7325000,0.7325000,0.7325000,-0.1083608,-0.0025923,-0.8917076,-0.1083608,-0.0922674,-0.2480317
0.7350000,0.7350000,0.7350000,-0.1060856,-0.0025747,-0.8822884,-0.1060856,-0.0903908,-0.2428090
0.7375000,0.7375000,0.7375000,-0.1038657,-0.0025570,-0.8730024,-0.1038657,-0.0885593,-0.2377117
0.7400000,0.7400000,0.7400000,-0.1016997,-0.0025393,-0.8638472,-0.1016997,-0.0867717,-0.2327365
0.7425000,0.7425000,0.7425000,-0.0995861,-0.0025216,-0.8548206,-0.0995861,-0.0850268,-0.2278803
0.7450000,0.7450000,0.7450000,-0.0975235,-0.0025039,-0.8459203,-0.0975235,-0.0833234,-0.2231398
0.7475000,0.7475000,0.7475000,-0.0955104,-0.0024862,-0.8371441,-0.0955104,-0.0816605,-0.2185120
0.7500000,0.7500000,0.7500000,-0.0935455,-0.0024686,-0.8284898,-0.0935455,-0.0800368,-0.2139940
0.7525000,0.7525000,0.7525000,-0.0916276,-0.0024509,-0.8199553,-0.0916276,-0.0784514,-0.2095829
0.7550000,0.7550000,0.7550000,-0.0897553,-0.0024333,-0.8115385,-0.0897553,-0.0769033,-0.2052758
0.7575000,0.7575000,0.7575000,-0.0879275,-0.0024157,-0.8032374,-0.0879275,-0.0753914,-0.2010702
0.7600000,0.7600000,0.7600000,-0.0861429,-0.0023981,-0.7950500,-0.0861429,-0.0739147,-0.1969632
0.7625000,0.7625000,0.7625000,-0.0844003,-0.0023806,-0.7869743,-0.0844003,-0.0724724,-0.1929524
0.7650000,0.7650000,0.7650000,-0.0826988,-0.0023632,-0.7790085,-0.0826988,-0.0710635,-0.1890352
0.7675000,0.7675000,0.7675000,-0.0810371,-0.0023458,-0.7711506,-0.0810371,-0.0696871,-0.1852092
0.7700000,0.7700000,0.7700000,-0.0794142,-0.0023285,-0.7633989,-0.0794142,-0.0683424,-0.1814720
0.7725000,0.7725000,0.7725000,-0.0778292,-0.0023112,-0.7557515,-0.0778292,-0.0670285,-0.1778214
0.7750000,0.7750000,0.7750000,-0.0762809,-0.0022940,-0.7482067,-0.0762809,-0.0657446,-0.1742551
0.7775000,0.7775000,0.7775000,-0.0747684,-0.0022769,-0.7407628,-0.0747684,-0.0644900,-0.1707709
0.7800000,0.7800000,0.7800000,-0.0732908,-0.0022598,-0.7334180,-0.0732908,-0.0632639,-0.1673667
0.7825000,0.7825000,0.7825000,-0.0718472,-0.0022429,-0.7261707,-0.0718472,-0.0620655,-0.1640405
0.7850000,0.7850000,0.7850000,-0.0704367,-0.0022260,-0.7190193,-0.0704367,-0.0608941,-0.1607902
0.7875000,0.7875000,0.7875000,-0.0690584,-0.0022092,-0.7119622,-0.0690584,-0.0597490,-0.1576139
0.7900000,0.7900000,0.7900000,-0.0677115,-0.0021926,-0.7049979,-0.0677115,-0.0586296,-0.1545098
0.7925000,0.7925000,0.7925000,-0.0663952,-0.0021760,-0.6981248,-0.0663952,-0.0575352,-0.1514759
0.7950000,0.7950000,0.7950000,-0.0651086,-0.0021595,-0.6913413,-0.0651086,-0.0564651,-0.1485105
0.7975000,0.7975000,0.7975000,-0.0638511,-0.0021431,-0.6846462,-0.0638511,-0.0554187,-0.1456119
0.8000000,0.8000000,0.8000000,-0.0626219,-0.0021268,-0.6780378,-0.0626219,-0.0543954,-0.1427784
0.8025000,0.8025000,0.8025000,-0.0614202,-0.0021106,-0.6715148,-0.0614202,-0.0533947,-0.1400083
0.8050000,0.8050000,0.8050000,-0.0602454,-0.0020945,-0.6650759,-0.0602454,-0.0524159,-0.1373000
0.8075000,0.8075000,0.8075000,-0.0590968,-0.0020785,-0.6587196,-0.0590968,-0.0514586,-0.1346521
0.8100000,0.8100000,0.8100000,-0.0579736,-0.0020626,-0.6524446,-0.0579736,-0.0505221,-0.1320629
0.8125000,0.8125000,0.8125000,-0.0568754,-0.0020468,-0.6462497,-0.0568754,-0.0496060,-0.1295310
0.8150000,0.8150000,0.8150000,-0.0558014,-0.0020312,-0.6401335,-0.0558014,-0.0487097,-0.1270549
0.8175000,0.8175000,0.8175000,-0.0547510,-0.0020156,-0.6340948,-0.0547510,-0.0478327,-0.1246334
0.8200000,0.8200000,0.8200000,-0.0537236,-0.0020002,-0.6281324,-0.0537236,-0.0469747,-0.1222650
0.8225000,0.8225000,0.8225000,-0.0527187,-0.0019848,-0.6222450,-0.0527187,-0.0461350,-0.1199484
0.8250000,0.8250000,0.8250000,-0.0517357,-0.0019696,-0.6164315,-0.0517357,-0.0453132,-0.1176824
0.8275000,0.8275000,0.8275000,-0.0507741,-0.0019545,-0.6106906,-0.0507741,-0.0445090,-0.1154656
0.8300000,0.8300000,0.8300000,-0.0498333,-0.0019395,-0.6050214,-0.0498333,-0.0437218,-0.1132970
0.8325000,0.8325000,0.8325000,-0.0489129,-0.0019246,-0.5994226,-0.0489129,-0.0429513,-0.1111752
0.8350000,0.8350000,0.8350000,-0.0480122,-0.0019099,-0.5938932,-0.0480122,-0.0421971,-0.1090992
0.8375000,0.8375000,0.8375000,-0.0471309,-0.0018952,-0.5884320,-0.0471309,-0.0414587,-0.1070679
0.8400000,0.8400000,0.8400000,-0.0462685,-0.0018807,-0.5830380,-0.0462685,-0.0407358,-0.1050801
0.8425000,0.8425000,0.8425000,-0.0454244,-0.0018662,-0.5777103,-0.0454244,-0.0400279,-0.1031348
0.8450000,0.8450000,0.8450000,-0.0445983,-0.0018519,-0.5724477,-0.0445983,-0.0393349,-0.1012311
0.8475000,0.8475000,0.8475000,-0.0437897,-0.0018377,-0.5672492,-0.0437897,-0.0386561,-0.0993677
0.8500000,0.8500000,0.8500000,-0.0429982,-0.0018237,-0.5621140,-0.0429982,-0.0379915,-0.0975439
0.8525000,0.8525000,0.8525000,-0.0422234,-0.0018097,-0.5570409,-0.0422234,-0.0373405,-0.0957587
0.8550000,0.8550000,0.8550000,-0.0414649,-0.0017958,-0.5520291,-0.0414649,-0.0367029,-0.0940111
0.8575000,0.8575000,0.8575000,-0.0407223,-0.0017821,-0.5470777,-0.0407223,-0.0360784,-0.0923002
0.8600000,0.8600000,0.8600000,-0.0399952,-0.0017685,-0.5421857,-0.0399952,-0.0354666,-0.0906253
0.8625000,0.8625000,0.8625000,-0.0392832,-0.0017550,-0.5373523,-0.0392832,-0.0348673,-0.0889853
0.8650000,0.8650000,0.8650000,-0.0385860,-0.0017416,-0.5325765,-0.0385860,-0.0342801,-0.0873795
0.8675000,0.8675000,0.8675000,-0.0379032,-0.0017283,-0.5278575,-0.0379032,-0.0337049,-0.0858071
0.8700000,0.8700000,0.8700000,-0.0372346,-0.0017151,-0.5231945,-0.0372346,-0.0331412,-0.0842672
0.8725000,0.8725000,0.8725000,-0.0365797,-0.0017021,-0.5185866,-0.0365797,-0.0325888,-0.0827592
0.8750000,0.8750000,0.8750000,-0.0359382,-0.0016891,-0.5140330,-0.0359382,-0.0320475,-0.0812823
0.8775000,0.8775000,0.8775000,-0.0353099,-0.0016763,-0.5095329,-0.0353099,-0.0315170,-0.0798358
0.8800000,0.8800000,0.8800000,-0.0346943,-0.0016635,-0.5050855,-0.0346943,-0.0309971,-0.0784189
0.8825000,0.8825000,0.8825000,-0.0340913,-0.0016509,-0.5006901,-0.0340913,-0.0304875,-0.0770309
0.8850000,0.8850000,0.8850000,-0.0335005,-0.0016384,-0.4963458,-0.0335005,-0.0299879,-0.0756713
0.8875000,0.8875000,0.8875000,-0.0329217,-0.0016260,-0.4920520,-0.0329217,-0.0294982,-0.0743393
0.8900000,0.8900000,0.8900000,-0.0323545,-0.0016137,-0.4878079,-0.0323545,-0.0290182,-0.0730343
0.8925000,0.8925000,0.8925000,-0.0317988,-0.0016015,-0.4836127,-0.0317988,-0.0285475,-0.0717556
0.8950000,0.8950000,0.8950000,-0.0312541,-0.0015894,-0.4794658,-0.0312541,-0.0280861,-0.0705028
0.8975000,0.8975000,0.8975000,-0.0307204,-0.0015775,-0.4753665,-0.0307204,-0.0276336,-0.0692751
0.9000000,0.9000000,0.9000000,-0.0301973,-0.0015656,-0.4713141,-0.0301973,-0.0271899,-0.0680721
0.9025000,0.9025000,0.9025000,-0.0296846,-0.0015538,-0.4673079,-0.0296846,-0.0267548,-0.0668931
0.9050000,0.9050000,0.9050000,-0.0291820,-0.0015422,-0.4633472,-0.0291820,-0.0263281,-0.0657376
0.9075000,0.9075000,0.9075000,-0.0286894,-0.0015306,-0.4594315,-0.0286894,-0.0259096,-0.0646050
0.9100000,0.9100000,0.9100000,-0.0282065,-0.0015192,-0.4555600,-0.0282065,-0.0254991,-0.0634950
0.9125000,0.9125000,0.9125000,-0.0277330,-0.0015078,-0.4517322,-0.0277330,-0.0250965,-0.0624069
0.9150000,0.9150000,0.9150000,-0.0272689,-0.0014965,-0.4479474,-0.0272689,-0.0247015,-0.0613402
0.9175000,0.9175000,0.9175000,-0.0268138,-0.0014854,-0.4442050,-0.0268138,-0.0243141,-0.0602946
0.9200000,0.9200000,0.9200000,-0.0263675,-0.0014743,-0.4405044,-0.0263675,-0.0239340,-0.0592694
0.9225000,0.9225000,0.9225000,-0.0259300,-0.0014634,-0.4368451,-0.0259300,-0.0235610,-0.0582643
0.9250000,0.9250000,0.9250000,-0.0255009,-0.0014525,-0.4332264,-0.0255009,-0.0231951,-0.0572788
0.9275000,0.9275000,0.9275000,-0.0250801,-0.0014418,-0.4296479,-0.0250801,-0.0228360,-0.0563125
0.9300000,0.9300000,0.9300000,-0.0246674,-0.0014311,-0.4261088,-0.0246674,-0.0224837,-0.0553650
0.9325000,0.9325000,0.9325000,-0.0242626,-0.0014205,-0.4226088,-0.0242626,-0.0221380,-0.0544358
0.9350000,0.9350000,0.9350000,-0.0238656,-0.0014100,-0.4191472,-0.0238656,-0.0217986,-0.0535245
0.9375000,0.9375000,0.9375000,-0.0234761,-0.0013997,-0.4157235,-0.0234761,-0.0214656,-0.0526307
0.9400000,0.9400000,0.9400000,-0.0230941,-0.0013894,-0.4123372,-0.0230941,-0.0211387,-0.0517542
0.9425000,0.9425000,0.9425000,-0.0227193,-0.0013792,-0.4089878,-0.0227193,-0.0208178,-0.0508944
0.9450000,0.9450000,0.9450000,-0.0223516,-0.0013691,-0.4056748,-0.0223516,-0.0205029,-0.0500510
0.9475000,0.9475000,0.9475000,-0.0219909,-0.0013591,-0.4023977,-0.0219909,-0.0201937,-0.0492237
0.9500000,0.9500000,0.9500000,-0.0216370,-0.0013491,-0.3991560,-0.0216370,-0.0198902,-0.0484122
0.9525000,0.9525000,0.9525000,-0.0212897,-0.0013393,-0.3959492,-0.0212897,-0.0195921,-0.0476160
0.9550000,0.9550000,0.9550000,-0.0209489,-0.0013295,-0.3927769,-0.0209489,-0.0192995,-0.0468348
0.9575000,0.9575000,0.9575000,-0.0206145,-0.0013199,-0.3896386,-0.0206145,-0.0190122,-0.0460684
0.9600000,0.9600000,0.9600000,-0.0202863,-0.0013103,-0.3865338,-0.0202863,-0.0187301,-0.0453164
0.9625000,0.9625000,0.9625000,-0.0199643,-0.0013008,-0.3834620,-0.0199643,-0.0184531,-0.0445785
0.9650000,0.9650000,0.9650000,-0.0196481,-0.0012914,-0.3804229,-0.0196481,-0.0181810,-0.0438544
0.9675000,0.9675000,0.9675000,-0.0193379,-0.0012821,-0.3774161,-0.0193379,-0.0179138,-0.0431438
0.9700000,0.9700000,0.9700000,-0.0190333,-0.0012729,-0.3744409,-0.0190333,-0.0176514,-0.0424464
0.9725000,0.9725000,0.9725000,-0.0187344,-0.0012637,-0.3714972,-0.0187344,-0.0173936,-0.0417620
0.9750000,0.9750000,0.9750000,-0.0184409,-0.0012546,-0.3685844,-0.0184409,-0.0171404,-0.0410903
0.9775000,0.9775000,0.9775000,-0.0181528,-0.0012456,-0.3657021,-0.0181528,-0.0168917,-0.0404309
0.9800000,0.9800000,0.9800000,-0.0178699,-0.0012367,-0.3628500,-0.0178699,-0.0166474,-0.0397837
0.9825000,0.9825000,0.9825000,-0.0175922,-0.0012279,-0.3600276,-0.0175922,-0.0164073,-0.0391484
0.9850000,0.9850000,0.9850000,-0.0173196,-0.0012191,-0.3572346,-0.0173196,-0.0161715,-0.0385248
0.9875000,0.9875000,0.9875000,-0.0170518,-0.0012105,-0.3544705,-0.0170518,-0.0159398,-0.0379125
0.9900000,0.9900000,0.9900000,-0.0167889,-0.0012019,-0.3517350,-0.0167889,-0.0157121,-0.0373114
0.9925000,0.9925000,0.9925000,-0.0165307,-0.0011933,-0.3490277,-0.0165307,-0.0154884,-0.0367213
0.9950000,0.9950000,0.9950000,-0.0162772,-0.0011849,-0.3463483,-0.0162772,-0.0152686,-0.0361418
0.9975000,0.9975000,0.9975000,-0.0160282,-0.0011765,-0.3436964,-0.0160282,-0.0150526,-0.0355729
1.0000000,1.0000000,1.0000000,-0.0157836,-0.0011682,-0.3410717,-0.0157836,-0.0148403,-0.0350142
1.0025000,1.0025000,1.0025000,-0.0155434,-0.0011600,-0.3384737,-0.0155434,-0.0146316,-0.0344655
1.0050000,1.0050000,1.0050000,-0.0153075,-0.0011519,-0.3359022,-0.0153075,-0.0144265,-0.0339268
1.0075000,1.0075000,1.0075000,-0.0150757,-0.0011438,-0.3333568,-0.0150757,-0.0142249,-0.0333977
1.0100000,1.0100000,1.0100000,-0.0148481,-0.0011358,-0.3308372,-0.0148481,-0.0140268,-0.0328780
1.0125000,1.0125000,1.0125000,-0.0146244,-0.0011279,-0.3283430,-0.0146244,-0.0138320,-0.0323676
1.0150000,1.0150000,1.0150000,-0.0144047,-0.0011200,-0.3258740,-0.0144047,-0.0136405,-0.0318663
1.0175000,1.0175000,1.0175000,-0.0141889,-0.0011122,-0.3234298,-0.0141889,-0.0134523,-0.0313739
1.0200000,1.0200000,1.0200000,-0.0139768,-0.0011045,-0.3210101,-0.0139768,-0.0132672,-0.0308902
1.0225000,1.0225000,1.0225000,-0.0137684,-0.0010968,-0.3186146,-0.0137684,-0.0130852,-0.0304151
1.0250000,1.0250000,1.0250000,-0.0135636,-0.0010892,-0.3162430,-0.0135636,-0.0129063,-0.0299483
1.0275000,1.0275000,1.0275000,-0.0133624,-0.0010817,-0.3138949,-0.0133624,-0.0127304,-0.0294897
1.0300000,1.0300000,1.0300000,-0.0131647,-0.0010742,-0.3115702,-0.0131647,-0.0125574,-0.0290392
1.0325000,1.0325000,1.0325000,-0.0129704,-0.0010668,-0.3092685,-0.0129704,-0.0123873,-0.0285965
1.0350000,1.0350000,1.0350000,-0.0127795,-0.0010595,-0.3069895,-0.0127795,-0.0122200,-0.0281616
1.0375000,1.0375000,1.0375000,-0.0125918,-0.0010523,-0.3047330,-0.0125918,-0.0120554,-0.0277342
1.0400000,1.0400000,1.0400000,-0.0124073,-0.0010451,-0.3024986,-0.0124073,-0.0118936,-0.0273143
1.0425000,1.0425000,1.0425000,-0.0122260,-0.0010379,-0.3002861,-0.0122260,-0.0117344,-0.0269016
1.0450000,1.0450000,1.0450000,-0.0120478,-0.0010308,-0.2980953,-0.0120478,-0.0115778,-0.0264961
1.0475000,1.0475000,1.0475000,-0.0118726,-0.0010238,-0.2959258,-0.0118726,-0.0114238,-0.0260976
1.0500000,1.0500000,1.0500000,-0.0117004,-0.0010169,-0.2937774,-0.0117004,-0.0112723,-0.0257059
1.0525000,1.0525000,1.0525000,-0.0115311,-0.0010100,-0.2916499,-0.0115311,-0.0111233,-0.0253209
1.0550000,1.0550000,1.0550000,-0.0113647,-0.0010032,-0.2895429,-0.0113647,-0.0109767,-0.0249425
1.0575000,1.0575000,1.0575000,-0.0112011,-0.0009964,-0.2874563,-0.0112011,-0.0108324,-0.0245706
1.0600000,1.0600000,1.0600000,-0.0110402,-0.0009897,-0.2853898,-0.0110402,-0.0106905,-0.0242051
1.0625000,1.0625000,1.0625000,-0.0108820,-0.0009830,-0.2833431,-0.0108820,-0.0105508,-0.0238457
1.0650000,1.0650000,1.0650000,-0.0107265,-0.0009764,-0.2813160,-0.0107265,-0.0104134,-0.0234925
1.0675000,1.0675000,1.0675000,-0.0105735,-0.0009699,-0.2793083,-0.0105735,-0.0102782,-0.0231452
1.0700000,1.0700000,1.0700000,-0.0104231,-0.0009634,-0.2773198,-0.0104231,-0.0101452,-0.0228038
1.0725000,1.0725000,1.0725000,-0.0102752,-0.0009570,-0.2753502,-0.0102752,-0.0100142,-0.0224681
1.0750000,1.0750000,1.0750000,-0.0101298,-0.0009506,-0.2733993,-0.0101298,-0.0098853,-0.0221381
1.0775000,1.0775000,1.0775000,-0.0099867,-0.0009443,-0.2714668,-0.0099867,-0.0097585,-0.0218136
1.0800000,1.0800000,1.0800000,-0.0098460,-0.0009380,-0.2695526,-0.0098460,-0.0096337,-0.0214945
1.0825000,1.0825000,1.0825000,-0.0097077,-0.0009318,-0.2676564,-0.0097077,-0.0095108,-0.0211808
1.0850000,1.0850000,1.0850000,-0.0095716,-0.0009256,-0.2657781,-0.0095716,-0.0093899,-0.0208723
1.0875000,1.0875000,1.0875000,-0.0094377,-0.0009195,-0.2639173,-0.0094377,-0.0092708,-0.0205689
1.0900000,1.0900000,1.0900000,-0.0093060,-0.0009135,-0.2620740,-0.0093060,-0.0091536,-0.0202706
1.0925000,1.0925000,1.0925000,-0.0091764,-0.0009075,-0.2602479,-0.0091764,-0.0090383,-0.0199772
1.0950000,1.0950000,1.0950000,-0.0090490,-0.0009015,-0.2584387,-0.0090490,-0.0089247,-0.0196886
1.0975000,1.0975000,1.0975000,-0.0089236,-0.0008956,-0.2566464,-0.0089236,-0.0088129,-0.0194048
1.1000000,1.1000000,1.1000000,-0.0088003,-0.0008898,-0.2548707,-0.0088003,-0.0087028,-0.0191256
1.1025000,1.1025000,1.1025000,-0.0086789,-0.0008840,-0.2531114,-0.0086789,-0.0085944,-0.0188510
1.1050000,1.1050000,1.1050000,-0.0085595,-0.0008782,-0.2513683,-0.0085595,-0.0084876,-0.0185809
1.1075000,1.1075000,1.1075000,-0.0084420,-0.0008725,-0.2496412,-0.0084420,-0.0083825,-0.0183153
1.1100000,1.1100000,1.1100000,-0.0083264,-0.0008669,-0.2479300,-0.0083264,-0.0082790,-0.0180539
1.1125000,1.1125000,1.1125000,-0.0082127,-0.0008613,-0.2462345,-0.0082127,-0.0081771,-0.0177968
1.1150000,1.1150000,1.1150000,-0.0081007,-0.0008557,-0.2445544,-0.0081007,-0.0080768,-0.0175439
1.1175000,1.1175000,1.1175000,-0.0079905,-0.0008502,-0.2428897,-0.0079905,-0.0079779,-0.0172950
1.1200000,1.1200000,1.1200000,-0.0078821,-0.0008447,-0.2412401,-0.0078821,-0.0078806,-0.0170502
1.1225000,1.1225000,1.1225000,-0.0077754,-0.0008393,-0.2396055,-0.0077754,-0.0077847,-0.0168093
1.1250000,1.1250000,1.1250000,-0.0076704,-0.0008339,-0.2379857,-0.0076704,-0.0076902,-0.0165723
1.1275000,1.1275000,1.1275000,-0.0075671,-0.0008286,-0.2363805,-0.0075671,-0.0075972,-0.0163391
1.1300000,1.1300000,1.1300000,-0.0074653,-0.0008233,-0.2347897,-0.0074653,-0.0075056,-0.0161096
1.1325000,1.1325000,1.1325000,-0.0073652,-0.0008180,-0.2332133,-0.0073652,-0.0074153,-0.0158838
1.1350000,1.1350000,1.1350000,-0.0072666,-0.0008128,-0.2316510,-0.0072666,-0.0073264,-0.0156616
1.1375000,1.1375000,1.1375000,-0.0071696,-0.0008077,-0.2301027,-0.0071696,-0.0072387,-0.0154429
1.1400000,1.1400000,1.1400000,-0.0070741,-0.0008026,-0.2285682,-0.0070741,-0.0071524,-0.0152277
1.1425000,1.1425000,1.1425000,-0.0069800,-0.0007975,-0.2270473,-0.0069800,-0.0070674,-0.0150159
1.1450000,1.1450000,1.1450000,-0.0068875,-0.0007925,-0.2255400,-0.0068875,-0.0069836,-0.0148074
1.1475000,1.1475000,1.1475000,-0.0067963,-0.0007875,-0.2240461,-0.0067963,-0.0069011,-0.0146023
1.1500000,1.1500000,1.1500000,-0.0067066,-0.0007825,-0.2225653,-0.0067066,-0.0068197,-0.0144003
1.1525000,1.1525000,1.1525000,-0.0066183,-0.0007776,-0.2210977,-0.0066183,-0.0067396,-0.0142015
1.1550000,1.1550000,1.1550000,-0.0065313,-0.0007727,-0.2196429,-0.0065313,-0.0066606,-0.0140059
1.1575000,1.1575000,1.1575000,-0.0064456,-0.0007679,-0.2182010,-0.0064456,-0.0065827,-0.0138133
1.1600000,1.1600000,1.1600000,-0.0063613,-0.0007631,-0.2167717,-0.0063613,-0.0065060,-0.0136237
1.1625000,1.1625000,1.1625000,-0.0062782,-0.0007584,-0.2153548,-0.0062782,-0.0064304,-0.0134371
1.1650000,1.1650000,1.1650000,-0.0061964,-0.0007537,-0.2139504,-0.0061964,-0.0063559,-0.0132533
1.1675000,1.1675000,1.1675000,-0.0061159,-0.0007490,-0.2125582,-0.0061159,-0.0062825,-0.0130724
1.1700000,1.1700000,1.1700000,-0.0060365,-0.0007443,-0.2111781,-0.0060365,-0.0062101,-0.0128943
1.1725000,1.1725000,1.1725000,-0.0059584,-0.0007397,-0.2098099,-0.0059584,-0.0061387,-0.0127190
1.1750000,1.1750000,1.1750000,-0.0058815,-0.0007352,-0.2084536,-0.0058815,-0.0060684,-0.0125463
1.1775000,1.1775000,1.1775000,-0.0058057,-0.0007307,-0.2071090,-0.0058057,-0.0059991,-0.0123764
1.1800000,1.1800000,1.1800000,-0.0057310,-0.0007262,-0.2057760,-0.0057310,-0.0059308,-0.0122090
1.1825000,1.1825000,1.1825000,-0.0056575,-0.0007217,-0.2044545,-0.0056575,-0.0058634,-0.0120442
1.1850000,1.1850000,1.1850000,-0.0055851,-0.0007173,-0.2031443,-0.0055851,-0.0057970,-0.0118819
1.1875000,1.1875000,1.1875000,-0.0055137,-0.0007129,-0.2018452,-0.0055137,-0.0057315,-0.0117221
1.1900000,1.1900000,1.1900000,-0.0054434,-0.0007086,-0.2005573,-0.0054434,-0.0056669,-0.0115647
1.1925000,1.1925000,1.1925000,-0.0053742,-0.0007043,-0.1992804,-0.0053742,-0.0056033,-0.0114097
1.1950000,1.1950000,1.1950000,-0.0053060,-0.0007000,-0.1980143,-0.0053060,-0.0055405,-0.0112570
1.1975000,1.1975000,1.1975000,-0.0052388,-0.0006957,-0.1967590,-0.0052388,-0.0054786,-0.0111067
1.2000000,1.2000000,1.2000000,-0.0051726,-0.0006915,-0.1955142,-0.0051726,-0.0054176,-0.0109586
1.2025000,1.2025000,1.2025000,-0.0051074,-0.0006873,-0.1942800,-0.0051074,-0.0053574,-0.0108128
1.2050000,1.2050000,1.2050000,-0.0050431,-0.0006832,-0.1930562,-0.0050431,-0.0052981,-0.0106691
1.2075000,1.2075000,1.2075000,-0.0049798,-0.0006791,-0.1918427,-0.0049798,-0.0052395,-0.0105277
1.2100000,1.2100000,1.2100000,-0.0049174,-0.0006750,-0.1906394,-0.0049174,-0.0051818,-0.0103883
1.2125000,1.2125000,1.2125000,-0.0048559,-0.0006710,-0.1894462,-0.0048559,-0.0051249,-0.0102510
1.2150000,1.2150000,1.2150000,-0.0047953,-0.0006669,-0.1882629,-0.0047953,-0.0050688,-0.0101158
1.2175000,1.2175000,1.2175000,-0.0047356,-0.0006630,-0.1870895,-0.0047356,-0.0050134,-0.0099825
1.2200000,1.2200000,1.2200000,-0.0046768,-0.0006590,-0.1859258,-0.0046768,-0.0049588,-0.0098513
1.2225000,1.2225000,1.2225000,-0.0046188,-0.0006551,-0.1847719,-0.0046188,-0.0049049,-0.0097220
1.2250000,1.2250000,1.2250000,-0.0045616,-0.0006512,-0.1836275,-0.0045616,-0.0048518,-0.0095946
1.2275000,1.2275000,1.2275000,-0.0045053,-0.0006473,-0.1824925,-0.0045053,-0.0047994,-0.0094691
1.2300000,1.2300000,1.2300000,-0.0044498,-0.0006435,-0.1813669,-0.0044498,-0.0047476,-0.0093455
1.2325000,1.2325000,1.2325000,-0.0043951,-0.0006397,-0.1802506,-0.0043951,-0.0046966,-0.0092237
1.2350000,1.2350000,1.2350000,-0.0043412,-0.0006359,-0.1791435,-0.0043412,-0.0046463,-0.0091036
1.2375000,1.2375000,1.2375000,-0.0042880,-0.0006322,-0.1780454,-0.0042880,-0.0045967,-0.0089853
1.2400000,1.2400000,1.2400000,-0.0042356,-0.0006285,-0.1769563,-0.0042356,-0.0045477,-0.0088688
1.2425000,1.2425000,1.2425000,-0.0041840,-0.0006248,-0.1758762,-0.0041840,-0.0044993,-0.0087539
1.2450000,1.2450000,1.2450000,-0.0041331,-0.0006211,-0.1748048,-0.0041331,-0.0044517,-0.0086408
1.2475000,1.2475000,1.2475000,-0.0040829,-0.0006175,-0.1737421,-0.0040829,-0.0044046,-0.0085293
1.2500000,1.2500000,1.2500000,-0.0040334,-0.0006139,-0.1726881,-0.0040334,-0.0043582,-0.0084193
1.2525000,1.2525000,1.2525000,-0.0039846,-0.0006103,-0.1716426,-0.0039846,-0.0043124,-0.0083110
1.2550000,1.2550000,1.2550000,-0.0039365,-0.0006068,-0.1706055,-0.0039365,-0.0042671,-0.0082043
1.2575000,1.2575000,1.2575000,-0.0038891,-0.0006033,-0.1695768,-0.0038891,-0.0042225,-0.0080991
1.2600000,1.2600000,1.2600000,-0.0038424,-0.0005998,-0.1685564,-0.0038424,-0.0041785,-0.0079954
1.2625000,1.2625000,1.2625000,-0.0037963,-0.0005963,-0.1675442,-0.0037963,-0.0041351,-0.0078932
1.2650000,1.2650000,1.2650000,-0.0037508,-0.0005929,-0.1665401,-0.0037508,-0.0040922,-0.0077925
1.2675000,1.2675000,1.2675000,-0.0037060,-0.0005895,-0.1655441,-0.0037060,-0.0040498,-0.0076932
1.2700000,1.2700000,1.2700000,-0.0036618,-0.0005861,-0.1645560,-0.0036618,-0.0040081,-0.0075953
1.2725000,1.2725000,1.2725000,-0.0036183,-0.0005827,-0.1635757,-0.0036183,-0.0039668,-0.0074989
1.2750000,1.2750000,1.2750000,-0.0035753,-0.0005794,-0.1626033,-0.0035753,-0.0039261,-0.0074038
1.2775000,1.2775000,1.2775000,-0.0035329,-0.0005761,-0.1616386,-0.0035329,-0.0038860,-0.0073100
1.2800000,1.2800000,1.2800000,-0.0034911,-0.0005728,-0.1606815,-0.0034911,-0.0038463,-0.0072176
1.2825000,1.2825000,1.2825000,-0.0034499,-0.0005695,-0.1597320,-0.0034499,-0.0038072,-0.0071265
1.2850000,1.2850000,1.2850000,-0.0034093,-0.0005663,-0.1587899,-0.0034093,-0.0037685,-0.0070367
1.2875000,1.2875000,1.2875000,-0.0033692,-0.0005631,-0.1578553,-0.0033692,-0.0037304,-0.0069482
1.2900000,1.2900000,1.2900000,-0.0033297,-0.0005599,-0.1569281,-0.0033297,-0.0036927,-0.0068609
1.2925000,1.2925000,1.2925000,-0.0032907,-0.0005567,-0.1560081,-0.0032907,-0.0036556,-0.0067748
1.2950000,1.2950000,1.2950000,-0.0032522,-0.0005536,-0.1550953,-0.0032522,-0.0036188,-0.0066900
1.2975000,1.2975000,1.2975000,-0.0032143,-0.0005505,-0.1541896,-0.0032143,-0.0035826,-0.0066063
1.3000000,1.3000000,1.3000000,-0.0031769,-0.0005474,-0.1532910,-0.0031769,-0.0035468,-0.0065238
1.3025000,1.3025000,1.3025000,-0.0031400,-0.0005443,-0.1523994,-0.0031400,-0.0035115,-0.0064425
1.3050000,1.3050000,1.3050000,-0.0031036,-0.0005412,-0.1515147,-0.0031036,-0.0034766,-0.0063623
1.3075000,1.3075000,1.3075000,-0.0030676,-0.0005382,-0.1506368,-0.0030676,-0.0034421,-0.0062832
1.3100000,1.3100000,1.3100000,-0.0030322,-0.0005352,-0.1497658,-0.0030322,-0.0034081,-0.0062052
1.3125000,1.3125000,1.3125000,-0.0029973,-0.0005322,-0.1489015,-0.0029973,-0.0033745,-0.0061283
1.3150000,1.3150000,1.3150000,-0.0029628,-0.0005293,-0.1480438,-0.0029628,-0.0033414,-0.0060524
1.3175000,1.3175000,1.3175000,-0.0029287,-0.0005263,-0.1471927,-0.0029287,-0.0033086,-0.0059776
1.3200000,1.3200000,1.3200000,-0.0028952,-0.0005234,-0.1463482,-0.0028952,-0.0032762,-0.0059039
1.3225000,1.3225000,1.3225000,-0.0028621,-0.0005205,-0.1455101,-0.0028621,-0.0032443,-0.0058311
1.3250000,1.3250000,1.3250000,-0.0028294,-0.0005176,-0.1446784,-0.0028294,-0.0032127,-0.0057594
1.3275000,1.3275000,1.3275000,-0.0027972,-0.0005148,-0.1438531,-0.0027972,-0.0031816,-0.0056886
1.3300000,1.3300000,1.3300000,-0.0027653,-0.0005119,-0.1430340,-0.0027653,-0.0031508,-0.0056188
1.3325000,1.3325000,1.3325000,-0.0027340,-0.0005091,-0.1422212,-0.0027340,-0.0031204,-0.0055500
1.3350000,1.3350000,1.3350000,-0.0027030,-0.0005063,-0.1414145,-0.0027030,-0.0030903,-0.0054821
1.3375000,1.3375000,1.3375000,-0.0026724,-0.0005036,-0.1406140,-0.0026724,-0.0030607,-0.0054151
1.3400000,1.3400000,1.3400000,-0.0026423,-0.0005008,-0.1398195,-0.0026423,-0.0030314,-0.0053490
1.3425000,1.3425000,1.3425000,-0.0026125,-0.0004981,-0.1390310,-0.0026125,-0.0030024,-0.0052839
1.3450000,1.3450000,1.3450000,-0.0025831,-0.0004954,-0.1382484,-0.0025831,-0.0029738,-0.0052196
1.3475000,1.3475000,1.3475000,-0.0025541,-0.0004927,-0.1374717,-0.0025541,-0.0029456,-0.0051562
1.3500000,1.3500000,1.3500000,-0.0025255,-0.0004900,-0.1367008,-0.0025255,-0.0029176,-0.0050936
1.3525000,1.3525000,1.3525000,-0.0024973,-0.0004873,-0.1359357,-0.0024973,-0.0028901,-0.0050319
1.3550000,1.3550000,1.3550000,-0.0024694,-0.0004847,-0.1351764,-0.0024694,-0.0028628,-0.0049710
1.3575000,1.3575000,1.3575000,-0.0024419,-0.0004821,-0.1344226,-0.0024419,-0.0028359,-0.0049110
1.3600000,1.3600000,1.3600000,-0.0024148,-0.0004795,-0.1336745,-0.0024148,-0.0028093,-0.0048517
1.3625000,1.3625000,1.3625000,-0.0023880,-0.0004769,-0.1329319,-0.0023880,-0.0027830,-0.0047933
1.3650000,1.3650000,1.3650000,-0.0023615,-0.0004744,-0.1321949,-0.0023615,-0.0027571,-0.0047356
1.3675000,1.3675000,1.3675000,-0.0023354,-0.0004718,-0.1314633,-0.0023354,-0.0027314,-0.0046787
1.3700000,1.3700000,1.3700000,-0.0023097,-0.0004693,-0.1307371,-0.0023097,-0.0027060,-0.0046225
1.3725000,1.3725000,1.3725000,-0.0022842,-0.0004668,-0.1300162,-0.0022842,-0.0026810,-0.0045671
1.3750000,1.3750000,1.3750000,-0.0022591,-0.0004643,-0.1293007,-0.0022591,-0.0026562,-0.0045125
1.3775000,1.3775000,1.3775000,-0.0022343,-0.0004618,-0.1285904,-0.0022343,-0.0026318,-0.0044585
1.3800000,1.3800000,1.3800000,-0.0022099,-0.0004594,-0.1278853,-0.0022099,-0.0026076,-0.0044053
1.3825000,1.3825000,1.3825000,-0.0021857,-0.0004569,-0.1271854,-0.0021857,-0.0025837,-0.0043528
1.3850000,1.3850000,1.3850000,-0.0021619,-0.0004545,-0.1264906,-0.0021619,-0.0025601,-0.0043010
1.3875000,1.3875000,1.3875000,-0.0021383,-0.0004521,-0.1258009,-0.0021383,-0.0025367,-0.0042498
1.3900000,1.3900000,1.3900000,-0.0021151,-0.0004497,-0.1251161,-0.0021151,-0.0025137,-0.0041993
1.3925000,1.3925000,1.3925000,-0.0020921,-0.0004473,-0.1244364,-0.0020921,-0.0024909,-0.0041495
1.3950000,1.3950000,1.3950000,-0.0020694,-0.0004450,-0.1237616,-0.0020694,-0.0024683,-0.0041004
1.3975000,1.3975000,1.3975000,-0.0020471,-0.0004426,-0.1230916,-0.0020471,-0.0024461,-0.0040519
1.4000000,1.4000000,1.4000000,-0.0020250,-0.0004403,-0.1224265,-0.0020250,-0.0024240,-0.0040040
1.4025000,1.4025000,1.4025000,-0.0020032,-0.0004380,-0.1217662,-0.0020032,-0.0024023,-0.0039567
1.4050000,1.4050000,1.4050000,-0.0019816,-0.0004357,-0.1211107,-0.0019816,-0.0023808,-0.0039101
1.4075000,1.4075000,1.4075000,-0.0019604,-0.0004335,-0.1204598,-0.0019604,-0.0023595,-0.0038641
1.4100000,1.4100000,1.4100000,-0.0019393,-0.0004312,-0.1198137,-0.0019393,-0.0023385,-0.0038186
1.4125000,1.4125000,1.4125000,-0.0019186,-0.0004290,-0.1191721,-0.0019186,-0.0023177,-0.0037738
1.4150000,1.4150000,1.4150000,-0.0018981,-0.0004267,-0.1185352,-0.0018981,-0.0022971,-0.0037295
1.4175000,1.4175000,1.4175000,-0.0018779,-0.0004245,-0.1179027,-0.0018779,-0.0022768,-0.0036858
1.4200000,1.4200000,1.4200000,-0.0018579,-0.0004223,-0.1172748,-0.0018579,-0.0022567,-0.0036427
1.4225000,1.4225000,1.4225000,-0.0018382,-0.0004201,-0.1166514,-0.0018382,-0.0022369,-0.0036001
1.4250000,1.4250000,1.4250000,-0.0018187,-0.0004180,-0.1160323,-0.0018187,-0.0022172,-0.0035581
1.4275000,1.4275000,1.4275000,-0.0017995,-0.0004158,-0.1154177,-0.0017995,-0.0021978,-0.0035166
1.4300000,1.4300000,1.4300000,-0.0017805,-0.0004137,-0.1148074,-0.0017805,-0.0021786,-0.0034757
1.4325000,1.4325000,1.4325000,-0.0017617,-0.0004116,-0.1142014,-0.0017617,-0.0021597,-0.0034352
1.4350000,1.4350000,1.4350000,-0.0017432,-0.0004095,-0.1135996,-0.0017432,-0.0021409,-0.0033953
1.4375000,1.4375000,1.4375000,-0.0017248,-0.0004074,-0.1130021,-0.0017248,-0.0021223,-0.0033559
1.4400000,1.4400000,1.4400000,-0.0017068,-0.0004053,-0.1124088,-0.0017068,-0.0021040,-0.0033170
1.4425000,1.4425000,1.4425000,-0.0016889,-0.0004032,-0.1118197,-0.0016889,-0.0020858,-0.0032786
1.4450000,1.4450000,1.4450000,-0.0016712,-0.0004012,-0.1112346,-0.0016712,-0.0020679,-0.0032407
1.4475000,1.4475000,1.4475000,-0.0016538,-0.0003991,-0.1106537,-0.0016538,-0.0020501,-0.0032033
1.4500000,1.4500000,1.4500000,-0.0016366,-0.0003971,-0.1100768,-0.0016366,-0.0020326,-0.0031663
1.4525000,1.4525000,1.4525000,-0.0016196,-0.0003951,-0.1095039,-0.0016196,-0.0020152,-0.0031298
1.4550000,1.4550000,1.4550000,-0.0016028,-0.0003931,-0.1089350,-0.0016028,-0.0019981,-0.0030938
1.4575000,1.4575000,1.4575000,-0.0015862,-0.0003911,-0.1083700,-0.0015862,-0.0019811,-0.0030582
1.4600000,1.4600000,1.4600000,-0.0015698,-0.0003891,-0.1078090,-0.0015698,-0.0019643,-0.0030231
1.4625000,1.4625000,1.4625000,-0.0015536,-0.0003872,-0.1072518,-0.0015536,-0.0019477,-0.0029884
1.4650000,1.4650000,1.4650000,-0.0015375,-0.0003852,-0.1066985,-0.0015375,-0.0019313,-0.0029541
1.4675000,1.4675000,1.4675000,-0.0015217,-0.0003833,-0.1061489,-0.0015217,-0.0019150,-0.0029203
1.4700000,1.4700000,1.4700000,-0.0015061,-0.0003814,-0.1056032,-0.0015061,-0.0018990,-0.0028869
1.4725000,1.4725000,1.4725000,-0.0014907,-0.0003795,-0.1050612,-0.0014907,-0.0018831,-0.0028539
1.4750000,1.4750000,1.4750000,-0.0014754,-0.0003776,-0.1045229,-0.0014754,-0.0018673,-0.0028213
1.4775000,1.4775000,1.4775000,-0.0014603,-0.0003757,-0.1039882,-0.0014603,-0.0018518,-0.0027892
1.4800000,1.4800000,1.4800000,-0.0014454,-0.0003738,-0.1034573,-0.0014454,-0.0018364,-0.0027574
1.4825000,1.4825000,1.4825000,-0.0014307,-0.0003720,-0.1029299,-0.0014307,-0.0018212,-0.0027260
1.4850000,1.4850000,1.4850000,-0.0014162,-0.0003701,-0.1024062,-0.0014162,-0.0018061,-0.0026951
1.4875000,1.4875000,1.4875000,-0.0014018,-0.0003683,-0.1018860,-0.0014018,-0.0017912,-0.0026645
1.4900000,1.4900000,1.4900000,-0.0013876,-0.0003665,-0.1013693,-0.0013876,-0.0017765,-0.0026342
1.4925000,1.4925000,1.4925000,-0.0013736,-0.0003647,-0.1008561,-0.0013736,-0.0017619,-0.0026044
1.4950000,1.4950000,1.4950000,-0.0013597,-0.0003629,-0.1003464,-0.0013597,-0.0017474,-0.0025749
1.4975000,1.4975000,1.4975000,-0.0013460,-0.0003611,-0.0998401,-0.0013460,-0.0017332,-0.0025458
1.5000000,1.5000000,1.5000000,-0.0013325,-0.0003593,-0.0993372,-0.0013325,-0.0017190,-0.0025170
1.5025000,1.5025000,1.5025000,-0.0013191,-0.0003576,-0.0988377,-0.0013191,-0.0017051,-0.0024886
1.5050000,1.5050000,1.5050000,-0.0013059,-0.0003558,-0.0983416,-0.0013059,-0.0016912,-0.0024606
1.5075000,1.5075000,1.5075000,-0.0012928,-0.0003541,-0.0978487,-0.0012928,-0.0016776,-0.0024329
1.5100000,1.5100000,1.5100000,-0.0012799,-0.0003523,-0.0973592,-0.0012799,-0.0016640,-0.0024055
1.5125000,1.5125000,1.5125000,-0.0012671,-0.0003506,-0.0968729,-0.0012671,-0.0016506,-0.0023785
1.5150000,1.5150000,1.5150000,-0.0012545,-0.0003489,-0.0963899,-0.0012545,-0.0016374,-0.0023518
1.5175000,1.5175000,1.5175000,-0.0012420,-0.0003472,-0.0959101,-0.0012420,-0.0016242,-0.0023254
1.5200000,1.5200000,1.5200000,-0.0012297,-0.0003455,-0.0954335,-0.0012297,-0.0016112,-0.0022993
1.5225000,1.5225000,1.5225000,-0.0012175,-0.0003439,-0.0949600,-0.0012175,-0.0015984,-0.0022736
1.5250000,1.5250000,1.5250000,-0.0012055,-0.0003422,-0.0944897,-0.0012055,-0.0015857,-0.0022481
1.5275000,1.5275000,1.5275000,-0.0011936,-0.0003406,-0.0940225,-0.0011936,-0.0015731,-0.0022230
1.5300000,1.5300000,1.5300000,-0.0011818,-0.0003389,-0.0935583,-0.0011818,-0.0015606,-0.0021982
1.5325000,1.5325000,1.5325000,-0.0011702,-0.0003373,-0.0930972,-0.0011702,-0.0015483,-0.0021736
1.5350000,1.5350000,1.5350000,-0.0011587,-0.0003357,-0.0926392,-0.0011587,-0.0015361,-0.0021494
1.5375000,1.5375000,1.5375000,-0.0011473,-0.0003341,-0.0921841,-0.0011473,-0.0015240,-0.0021255
1.5400000,1.5400000,1.5400000,-0.0011361,-0.0003325,-0.0917321,-0.0011361,-0.0015121,-0.0021018
1.5425000,1.5425000,1.5425000,-0.0011249,-0.0003309,-0.0912830,-0.0011249,-0.0015003,-0.0020785
1.5450000,1.5450000,1.5450000,-0.0011140,-0.0003293,-0.0908368,-0.0011140,-0.0014885,-0.0020554
1.5475000,1.5475000,1.5475000,-0.0011031,-0.0003277,-0.0903935,-0.0011031,-0.0014770,-0.0020326
1.5500000,1.5500000,1.5500000,-0.0010924,-0.0003262,-0.0899532,-0.0010924,-0.0014655,-0.0020100
1.5525000,1.5525000,1.5525000,-0.0010818,-0.0003246,-0.0895156,-0.0010818,-0.0014541,-0.0019878
1.5550000,1.5550000,1.5550000,-0.0010713,-0.0003231,-0.0890810,-0.0010713,-0.0014429,-0.0019658
1.5575000,1.5575000,1.5575000,-0.0010609,-0.0003215,-0.0886491,-0.0010609,-0.0014318,-0.0019440
1.5600000,1.5600000,1.5600000,-0.0010506,-0.0003200,-0.0882200,-0.0010506,-0.0014207,-0.0019225
1.5625000,1.5625000,1.5625000,-0.0010405,-0.0003185,-0.0877937,-0.0010405,-0.0014098,-0.0019013
1.5650000,1.5650000,1.5650000,-0.0010305,-0.0003170,-0.0873702,-0.0010305,-0.0013990,-0.0018803
1.5675000,1.5675000,1.5675000,-0.0010206,-0.0003155,-0.0869494,-0.0010206,-0.0013883,-0.0018596
1.5700000,1.5700000,1.5700000,-0.0010108,-0.0003140,-0.0865312,-0.0010108,-0.0013778,-0.0018391
1.5725000,1.5725000,1.5725000,-0.0010011,-0.0003126,-0.0861158,-0.0010011,-0.0013673,-0.0018189
1.5750000,1.5750000,1.5750000,-0.0009915,-0.0003111,-0.0857030,-0.0009915,-0.0013569,-0.0017989
1.5775000,1.5775000,1.5775000,-0.0009820,-0.0003096,-0.0852929,-0.0009820,-0.0013466,-0.0017791
1.5800000,1.5800000,1.5800000,-0.0009726,-0.0003082,-0.0848854,-0.0009726,-0.0013365,-0.0017596
1.5825000,1.5825000,1.5825000,-0.0009634,-0.0003068,-0.0844805,-0.0009634,-0.0013264,-0.0017403
1.5850000,1.5850000,1.5850000,-0.0009542,-0.0003053,-0.0840781,-0.0009542,-0.0013164,-0.0017212
1.5875000,1.5875000,1.5875000,-0.0009451,-0.0003039,-0.0836783,-0.0009451,-0.0013066,-0.0017024
1.5900000,1.5900000,1.5900000,-0.0009362,-0.0003025,-0.0832811,-0.0009362,-0.0012968,-0.0016837
1.5925000,1.5925000,1.5925000,-0.0009273,-0.0003011,-0.0828863,-0.0009273,-0.0012871,-0.0016653
1.5950000,1.5950000,1.5950000,-0.0009186,-0.0002997,-0.0824941,-0.0009186,-0.0012775,-0.0016471
1.5975000,1.5975000,1.5975000,-0.0009099,-0.0002983,-0.0821043,-0.0009099,-0.0012680,-0.0016291
