# r[nm],d[nm],daligned[nm],U(d)[kj/mol],V(d)[e/nm],Uslab(d)[kJ/mol],UC(d)[kJ/mol],UK(d)[kJ/mol],UCl(d)[kJ/mol]
0.1725000,0.1725000,0.1725000,1679.5464174,0.0766631,436.6894046,1679.5464174,1057.4907144,inf
0.1750000,0.1750000,0.1750000,1485.9044993,0.0719173,378.3235886,1485.9044993,934.5674436,inf
0.1775000,0.1775000,0.1775000,1315.4382043,0.0673975,327.9643754,1315.4382043,826.4198901,inf
0.1800000,0.1800000,0.1800000,1165.2623523,0.0630937,284.4428924,1165.2623523,731.2048112,inf
0.1825000,0.1825000,0.1825000,1032.8646293,0.0589964,246.7727250,1032.8646293,647.3174248,inf
0.1850000,0.1850000,0.1850000,916.0558070,0.0550964,214.1195261,916.0558070,573.3595545,inf
0.1875000,0.1875000,0.1875000,812.9267829,0.0513848,185.7760175,812.9267829,508.1121413,inf
0.1900000,0.1900000,0.1900000,721.8114916,0.0478532,161.1413616,721.8114916,450.5115133,inf
0.1925000,0.1925000,0.1925000,641.2548671,0.0444934,139.7040921,641.2548671,399.6288875,inf
0.1950000,0.1950000,0.1950000,569.9851546,0.0412976,121.0279513,569.9851546,354.6526528,inf
0.1975000,0.1975000,0.1975000,506.8899671,0.0382583,104.7401099,506.8899671,314.8730421,inf
0.2000000,0.2000000,0.2000000,450.9955687,0.0353685,90.5213454,450.9955687,279.6688528,inf
0.2025000,0.2025000,0.2025000,401.4489361,0.0326212,78.0978340,401.4489361,248.4959208,1720.4352646
0.2050000,0.2050000,0.2050000,357.5022143,0.0300099,67.2342765,357.5022143,220.8770999,1537.0462566
0.2075000,0.2075000,0.2075000,318.4992307,0.0275285,57.7281289,318.4992307,196.3935519,1373.9677313
0.2100000,0.2100000,0.2100000,283.8637747,0.0251712,49.4047492,283.8637747,174.6771979,1228.8501413
0.2125000,0.2125000,0.2125000,253.0893937,0.0229330,42.1133084,253.0893937,155.4042204,1099.6278577
0.2150000,0.2150000,0.2150000,225.7304999,0.0208098,35.7233361,225.7304999,138.2895131,984.4834349
0.2175000,0.2175000,0.2175000,201.3946249,0.0187985,30.1217991,201.3946249,123.0819700,881.8165415
0.2200000,0.2200000,0.2200000,179.7357041,0.0168975,25.2106243,179.7357041,109.5604789,790.2169270
0.2225000,0.2225000,0.2225000,160.4482908,0.0151067,20.9045949,160.4482908,97.5304765,708.4408843
0.2250000,0.2250000,0.2250000,143.2626098,0.0134265,17.1295607,143.2626098,86.8209212,635.3907390
0.2275000,0.2275000,0.2275000,127.9403410,0.0118579,13.8209129,127.9403410,77.2815708,570.0969643
0.2300000,0.2300000,0.2300000,114.2710133,0.0104008,10.9222816,114.2710133,68.7804936,511.7025723
0.2325000,0.2325000,0.2325000,102.0688768,0.0090536,8.3844219,102.0688768,61.2017854,459.4494809
0.2350000,0.2350000,0.2350000,91.1701323,0.0078126,6.1642596,91.1701323,54.4434960,412.6665935
0.2375000,0.2375000,0.2375000,81.4304263,0.0066716,4.2240711,81.4304263,48.4157791,370.7593617
0.2400000,0.2400000,0.2400000,72.7225550,0.0056224,2.5307787,72.7225550,43.0392743,333.2006332
0.2425000,0.2425000,0.2425000,64.9343610,0.0046557,1.0553400,64.9343610,38.2437168,299.5226119
0.2450000,0.2450000,0.2450000,57.9668252,0.0037616,-0.2277796,57.9668252,33.9667572,269.3097912
0.2475000,0.2475000,0.2475000,51.7323669,0.0029307,-1.3410677,51.7323669,30.1529635,242.1927510
0.2500000,0.2500000,0.2500000,46.1533551,0.0021545,-2.3043672,46.1533551,26.7529775,217.8427307
0.2525000,0.2525000,0.2525000,41.1608273,0.0014256,-3.1352290,41.1608273,23.7227972,195.9669069
0.2550000,0.2550000,0.2550000,36.6933958,0.0007379,-3.8492231,36.6933958,21.0231616,176.3043064
0.2575000,0.2575000,0.2575000,32.6963202,0.0000867,-4.4602095,32.6963202,18.6190170,158.6222758
0.2600000,0.2600000,0.2600000,29.1207167,-0.0005319,-4.9805723,29.1207167,16.4790529,142.7134242
0.2625000,0.2625000,0.2625000,25.9228841,-0.0011206,-5.4214172,25.9228841,14.5752917,128.3929466
0.2650000,0.2650000,0.2650000,23.0637211,-0.0016818,-5.7927352,23.0637211,12.8827256,115.4962453
0.2675000,0.2675000,0.2675000,20.5082213,-0.0022170,-6.1035355,20.5082213,11.3789903,103.8767794
0.2700000,0.2700000,0.2700000,18.2250300,-0.0027275,-6.3619530,18.2250300,10.0440672,93.4040978
0.2725000,0.2725000,0.2725000,16.1860537,-0.0032144,-6.5753335,16.1860537,8.8600075,83.9620320
0.2750000,0.2750000,0.2750000,14.3661129,-0.0036786,-6.7502974,14.3661129,7.8106697,75.4470454
0.2775000,0.2775000,0.2775000,12.7426309,-0.0041207,-6.8927783,12.7426309,6.8814711,67.7667411
0.2800000,0.2800000,0.2800000,11.2953512,-0.0045413,-7.0080370,11.2953512,6.0591577,60.8385335
0.2825000,0.2825000,0.2825000,10.0060764,-0.0049411,-7.1006539,10.0060764,5.3316027,54.5884798
0.2850000,0.2850000,0.2850000,8.8584235,-0.0053207,-7.1745114,8.8584235,4.6876505,48.9502643
0.2875000,0.2875000,0.2875000,7.8375906,-0.0056813,-7.2327825,7.8375906,4.1170184,43.8643201
0.2900000,0.2900000,0.2900000,6.9301396,-0.0060245,-7.2779428,6.9301396,3.6102619,39.2770708
0.2925000,0.2925000,0.2925000,6.1237983,-0.0063526,-7.3118172,6.1237983,3.1587967,35.1402755
0.2950000,0.2950000,0.2950000,5.4072974,-0.0066690,-7.3356631,5.4072974,2.7549565,31.4104592
0.2975000,0.2975000,0.2975000,4.7702501,-0.0069780,-7.3502823,4.7702501,2.3920595,28.0484148
0.3000000,0.3000000,0.3000000,4.2030853,-0.0072844,-7.3561472,4.2030853,2.0644515,25.0187659
0.3025000,0.3025000,0.3025000,3.6970319,-0.0075928,-7.3535264,3.6970319,1.7675027,22.2895790
0.3050000,0.3050000,0.3050000,3.2441448,-0.0079072,-7.3425973,3.2441448,1.4975472,19.8320193
0.3075000,0.3075000,0.3075000,2.8373534,-0.0082300,-7.3235365,2.8373534,1.2517680,17.6200423
0.3100000,0.3100000,0.3100000,2.4705071,-0.0085611,-7.2965874,2.4705071,1.0280455,15.6301179
0.3125000,0.3125000,0.3125000,2.1383973,-0.0088986,-7.2621044,2.1383973,0.8247901,13.8409798
0.3150000,0.3150000,0.3150000,1.8367371,-0.0092380,-7.2205764,1.8367371,0.6407796,12.2333987
0.3175000,0.3175000,0.3175000,1.5620945,-0.0095734,-7.1726316,1.5620945,0.4750170,10.7899716
0.3200000,0.3200000,0.3200000,1.3117854,-0.0098982,-7.1190242,1.3117854,0.3266169,9.4949258
0.3225000,0.3225000,0.3225000,1.0837387,-0.0102061,-7.0606022,1.0837387,0.1947228,8.3339340
0.3250000,0.3250000,0.3250000,0.8763518,-0.0104913,-6.9982604,0.8763518,0.0784517,7.2939404
0.3275000,0.3275000,0.3275000,0.6883525,-0.0107496,-6.9328863,0.6883525,-0.0231360,6.3630000
0.3300000,0.3300000,0.3300000,0.5186773,-0.0109788,-6.8653090,0.5186773,-0.1110475,5.5301363
0.3325000,0.3325000,0.3325000,0.3663743,-0.0111780,-6.7962630,0.3663743,-0.1863544,4.7852242
0.3350000,0.3350000,0.3350000,0.2305308,-0.0113486,-6.7263742,0.2305308,-0.2501791,4.1189031
0.3375000,0.3375000,0.3375000,0.1102243,-0.0114934,-6.6561718,0.1102243,-0.3036760,3.5225239
0.3400000,0.3400000,0.3400000,0.0044957,-0.0116164,-6.5861176,0.0044957,-0.3480114,2.9881282
0.3425000,0.3425000,0.3425000,-0.0876622,-0.0117231,-6.5166447,-0.0876622,-0.3843446,2.5084549
0.3450000,0.3450000,0.3450000,-0.1673016,-0.0118192,-6.4481879,-0.1673016,-0.4138115,2.0769610
0.3475000,0.3475000,0.3475000,-0.2355095,-0.0119112,-6.3811940,-0.2355095,-0.4375114,1.6878457
0.3500000,0.3500000,0.3500000,-0.2933926,-0.0120052,-6.3161055,-0.2933926,-0.4564961,1.3360627
0.3525000,0.3525000,0.3525000,-0.3420605,-0.0121074,-6.2533227,-0.3420605,-0.4717619,1.0173107
0.3550000,0.3550000,0.3550000,-0.3826115,-0.0122232,-6.1931542,-0.3826115,-0.4842422,0.7279964
0.3575000,0.3575000,0.3575000,-0.4161200,-0.0123568,-6.1357730,-0.4161200,-0.4947995,0.4651701
0.3600000,0.3600000,0.3600000,-0.4436275,-0.0125110,-6.0811925,-0.4436275,-0.5042175,0.2264395
0.3625000,0.3625000,0.3625000,-0.4661354,-0.0126864,-6.0292712,-0.4661354,-0.5131901,0.0098704
0.3650000,0.3650000,0.3650000,-0.4846004,-0.0128805,-5.9797421,-0.4846004,-0.5223080,-0.1861159
0.3675000,0.3675000,0.3675000,-0.4999295,-0.0130877,-5.9322535,-0.4999295,-0.5320444,-0.3628397
0.3700000,0.3700000,0.3700000,-0.5129749,-0.0132985,-5.8864083,-0.5129749,-0.5427403,-0.5214486
0.3725000,0.3725000,0.3725000,-0.5245252,-0.0134998,-5.8417931,-0.5245252,-0.5545948,-0.6629867
0.3750000,0.3750000,0.3750000,-0.5352935,-0.0136759,-5.7979982,-0.5352935,-0.5676619,-0.7884476
0.3775000,0.3775000,0.3775000,-0.5459016,-0.0138094,-5.7546350,-0.5459016,-0.5818594,-0.8988099
0.3800000,0.3800000,0.3800000,-0.5568608,-0.0138832,-5.7113527,-0.5568608,-0.5969896,-0.9950579
0.3825000,0.3825000,0.3825000,-0.5685544,-0.0138828,-5.6678556,-0.5685544,-0.6127699,-1.0781908
0.3850000,0.3850000,0.3850000,-0.5812239,-0.0137976,-5.6239163,-0.5812239,-0.6288687,-1.1492226
0.3875000,0.3875000,0.3875000,-0.5949666,-0.0136220,-5.5793860,-0.5949666,-0.6449390,-1.2091769
0.3900000,0.3900000,0.3900000,-0.6097441,-0.0133554,-5.5342004,-0.6097441,-0.6606459,-1.2590786
0.3925000,0.3925000,0.3925000,-0.6254038,-0.0130020,-5.4883838,-0.6254038,-0.6756853,-1.2999464
0.3950000,0.3950000,0.3950000,-0.6417078,-0.0125692,-5.4420473,-0.6417078,-0.6897947,-1.3327853
0.3975000,0.3975000,0.3975000,-0.6583638,-0.0120677,-5.3953773,-0.6583638,-0.7027565,-1.3585817
0.4000000,0.4000000,0.4000000,-0.6750549,-0.0115106,-5.3486116,-0.6750549,-0.7143980,-1.3783003
0.4025000,0.4025000,0.4025000,-0.6914627,-0.0109132,-5.3020067,-0.6914627,-0.7245899,-1.3928821
0.4050000,0.4050000,0.4050000,-0.7072858,-0.0102918,-5.2558034,-0.7072858,-0.7332454,-1.4032429
0.4075000,0.4075000,0.4075000,-0.7222519,-0.0096635,-5.2101993,-0.7222519,-0.7403230,-1.4102686
0.4100000,0.4100000,0.4100000,-0.7361257,-0.0090441,-5.1653331,-0.7361257,-0.7458313,-1.4148073
0.4125000,0.4125000,0.4125000,-0.7487134,-0.0084477,-5.1212778,-0.7487134,-0.7498370,-1.4176552
0.4150000,0.4150000,0.4150000,-0.7598659,-0.0078858,-5.0780407,-0.7598659,-0.7524707,-1.4195382
0.4175000,0.4175000,0.4175000,-0.7694815,-0.0073673,-5.0355656,-0.7694815,-0.7539283,-1.4210905
0.4200000,0.4200000,0.4200000,-0.7775091,-0.0068991,-4.9937378,-0.7775091,-0.7544639,-1.4228330
0.4225000,0.4225000,0.4225000,-0.7839527,-0.0064869,-4.9523914,-0.7839527,-0.7543721,-1.4251582
0.4250000,0.4250000,0.4250000,-0.7888754,-0.0061357,-4.9113218,-0.7888754,-0.7539634,-1.4283215
0.4275000,0.4275000,0.4275000,-0.7924008,-0.0058504,-4.8703027,-0.7924008,-0.7535347,-1.4324424
0.4300000,0.4300000,0.4300000,-0.7947101,-0.0056350,-4.8291038,-0.7947101,-0.7533413,-1.4375151
0.4325000,0.4325000,0.4325000,-0.7960320,-0.0054923,-4.7875077,-0.7960320,-0.7535744,-1.4434255
0.4350000,0.4350000,0.4350000,-0.7966270,-0.0054230,-4.7453203,-0.7966270,-0.7543497,-1.4499746
0.4375000,0.4375000,0.4375000,-0.7967662,-0.0054241,-4.7023764,-0.7967662,-0.7557066,-1.4569028
0.4400000,0.4400000,0.4400000,-0.7967085,-0.0054890,-4.6585413,-0.7967085,-0.7576195,-1.4639160
0.4425000,0.4425000,0.4425000,-0.7966792,-0.0056071,-4.6137109,-0.7966792,-0.7600181,-1.4707086
0.4450000,0.4450000,0.4450000,-0.7968540,-0.0057647,-4.5678124,-0.7968540,-0.7628099,-1.4769840
0.4475000,0.4475000,0.4475000,-0.7973503,-0.0059462,-4.5208041,-0.7973503,-0.7659028,-1.4824713
0.4500000,0.4500000,0.4500000,-0.7982271,-0.0061362,-4.4726765,-0.7982271,-0.7692207,-1.4869376
0.4525000,0.4525000,0.4525000,-0.7994928,-0.0063211,-4.4234509,-0.7994928,-0.7727104,-1.4901974
0.4550000,0.4550000,0.4550000,-0.8011195,-0.0064907,-4.3731771,-0.8011195,-0.7763404,-1.4921186
0.4575000,0.4575000,0.4575000,-0.8030591,-0.0066390,-4.3219306,-0.8030591,-0.7800907,-1.4926266
0.4600000,0.4600000,0.4600000,-0.8052591,-0.0067641,-4.2698070,-0.8052591,-0.7839398,-1.4917056
0.4625000,0.4625000,0.4625000,-0.8076733,-0.0068669,-4.2169175,-0.8076733,-0.7878503,-1.4893981
0.4650000,0.4650000,0.4650000,-0.8102675,-0.0069497,-4.1633837,-0.8102675,-0.7917584,-1.4858003
0.4675000,0.4675000,0.4675000,-0.8130166,-0.0070149,-4.1093325,-0.8130166,-0.7955696,-1.4810558
0.4700000,0.4700000,0.4700000,-0.8158983,-0.0070632,-4.0548920,-0.8158983,-0.7991619,-1.4753448
0.4725000,0.4725000,0.4725000,-0.8188827,-0.0070937,-4.0001883,-0.8188827,-0.8023964,-1.4688717
0.4750000,0.4750000,0.4750000,-0.8219229,-0.0071036,-3.9453428,-0.8219229,-0.8051306,-1.4618507
0.4775000,0.4775000,0.4775000,-0.8249492,-0.0070895,-3.8904698,-0.8249492,-0.8072333,-1.4544910
0.4800000,0.4800000,0.4800000,-0.8278679,-0.0070478,-3.8356759,-0.8278679,-0.8085950,-1.4469841
0.4825000,0.4825000,0.4825000,-0.8305664,-0.0069761,-3.7810587,-0.8305664,-0.8091344,-1.4394935
0.4850000,0.4850000,0.4850000,-0.8329220,-0.0068740,-3.7267065,-0.8329220,-0.8087985,-1.4321497
0.4875000,0.4875000,0.4875000,-0.8348119,-0.0067430,-3.6726987,-0.8348119,-0.8075604,-1.4250487
0.4900000,0.4900000,0.4900000,-0.8361237,-0.0065869,-3.6191055,-0.8361237,-0.8054148,-1.4182558
0.4925000,0.4925000,0.4925000,-0.8367617,-0.0064108,-3.5659886,-0.8367617,-0.8023729,-1.4118114
0.4950000,0.4950000,0.4950000,-0.8366519,-0.0062206,-3.5134019,-0.8366519,-0.7984579,-1.4057369
0.4975000,0.4975000,0.4975000,-0.8357427,-0.0060217,-3.4613913,-0.8357427,-0.7937023,-1.4000401
0.5000000,0.5000000,0.5000000,-0.8340050,-0.0058183,-3.4099963,-0.8340050,-0.7881455,-1.3947169
0.5025000,0.5025000,0.5025000,-0.8314291,-0.0056129,-3.3592499,-0.8314291,-0.7818335,-1.3897517
0.5050000,0.5050000,0.5050000,-0.8280222,-0.0054063,-3.3091795,-0.8280222,-0.7748175,-1.3851153
0.5075000,0.5075000,0.5075000,-0.8238053,-0.0051979,-3.2598074,-0.8238053,-0.7671522,-1.3807619
0.5100000,0.5100000,0.5100000,-0.8188105,-0.0049859,-3.2111512,-0.8188105,-0.7588936,-1.3766273
0.5125000,0.5125000,0.5125000,-0.8130789,-0.0047681,-3.1632246,-0.8130789,-0.7500951,-1.3726290
0.5150000,0.5150000,0.5150000,-0.8066579,-0.0045422,-3.1160377,-0.8066579,-0.7408058,-1.3686678
0.5175000,0.5175000,0.5175000,-0.7995980,-0.0043066,-3.0695974,-0.7995980,-0.7310689,-1.3646328
0.5200000,0.5200000,0.5200000,-0.7919497,-0.0040605,-3.0239077,-0.7919497,-0.7209216,-1.3604069
0.5225000,0.5225000,0.5225000,-0.7837600,-0.0038044,-2.9789704,-0.7837600,-0.7103971,-1.3558731
0.5250000,0.5250000,0.5250000,-0.7750705,-0.0035402,-2.9347849,-0.7750705,-0.6995256,-1.3509212
0.5275000,0.5275000,0.5275000,-0.7659163,-0.0032708,-2.8913489,-0.7659163,-0.6883365,-1.3454526
0.5300000,0.5300000,0.5300000,-0.7563270,-0.0030000,-2.8486586,-0.7563270,-0.6768597,-1.3393841
0.5325000,0.5325000,0.5325000,-0.7463279,-0.0027319,-2.8067085,-0.7463279,-0.6651268,-1.3326503
0.5350000,0.5350000,0.5350000,-0.7359425,-0.0024707,-2.7654923,-0.7359425,-0.6531711,-1.3252043
0.5375000,0.5375000,0.5375000,-0.7251939,-0.0022202,-2.7250025,-0.7251939,-0.6410277,-1.3170169
0.5400000,0.5400000,0.5400000,-0.7141072,-0.0019838,-2.6852306,-0.7141072,-0.6287327,-1.3080759
0.5425000,0.5425000,0.5425000,-0.7027095,-0.0017640,-2.6461677,-0.7027095,-0.6163233,-1.2983838
0.5450000,0.5450000,0.5450000,-0.6910314,-0.0015626,-2.6078042,-0.6910314,-0.6038359,-1.2879553
0.5475000,0.5475000,0.5475000,-0.6791057,-0.0013805,-2.5701298,-0.6791057,-0.5913066,-1.2768140
0.5500000,0.5500000,0.5500000,-0.6669679,-0.0012182,-2.5331342,-0.6669679,-0.5787697,-1.2649894
0.5525000,0.5525000,0.5525000,-0.6546548,-0.0010755,-2.4968064,-0.6546548,-0.5662577,-1.2525135
0.5550000,0.5550000,0.5550000,-0.6422041,-0.0009517,-2.4611354,-0.6422041,-0.5538007,-1.2394182
0.5575000,0.5575000,0.5575000,-0.6296533,-0.0008457,-2.4261100,-0.6296533,-0.5414263,-1.2257337
0.5600000,0.5600000,0.5600000,-0.6170389,-0.0007565,-2.3917188,-0.6170389,-0.5291593,-1.2114884
0.5625000,0.5625000,0.5625000,-0.6043963,-0.0006827,-2.3579503,-0.6043963,-0.5170219,-1.1967089
0.5650000,0.5650000,0.5650000,-0.5917586,-0.0006227,-2.3247932,-0.5917586,-0.5050337,-1.1814208
0.5675000,0.5675000,0.5675000,-0.5791569,-0.0005752,-2.2922359,-0.5791569,-0.4932116,-1.1656505
0.5700000,0.5700000,0.5700000,-0.5666194,-0.0005389,-2.2602670,-0.5666194,-0.4815700,-1.1494261
0.5725000,0.5725000,0.5725000,-0.5541721,-0.0005122,-2.2288752,-0.5541721,-0.4701211,-1.1327781
0.5750000,0.5750000,0.5750000,-0.5418379,-0.0004941,-2.1980492,-0.5418379,-0.4588750,-1.1157404
0.5775000,0.5775000,0.5775000,-0.5296375,-0.0004833,-2.1677778,-0.5296375,-0.4478399,-1.0983498
0.5800000,0.5800000,0.5800000,-0.5175887,-0.0004788,-2.1380499,-0.5175887,-0.4370222,-1.0806462
0.5825000,0.5825000,0.5825000,-0.5057069,-0.0004796,-2.1088547,-0.5057069,-0.4264267,-1.0626721
0.5850000,0.5850000,0.5850000,-0.4940055,-0.0004849,-2.0801814,-0.4940055,-0.4160571,-1.0444715
0.5875000,0.5875000,0.5875000,-0.4824955,-0.0004939,-2.0520194,-0.4824955,-0.4059154,-1.0260893
0.5900000,0.5900000,0.5900000,-0.4711862,-0.0005059,-2.0243582,-0.4711862,-0.3960028,-1.0075706
0.5925000,0.5925000,0.5925000,-0.4600849,-0.0005204,-1.9971876,-0.4600849,-0.3863197,-0.9889599
0.5950000,0.5950000,0.5950000,-0.4491976,-0.0005369,-1.9704975,-0.4491976,-0.3768653,-0.9703004
0.5975000,0.5975000,0.5975000,-0.4385286,-0.0005548,-1.9442779,-0.4385286,-0.3676383,-0.9516333
0.6000000,0.6000000,0.6000000,-0.4280812,-0.0005738,-1.9185192,-0.4280812,-0.3586369,-0.9329976
0.6025000,0.6025000,0.6025000,-0.4178573,-0.0005936,-1.8932118,-0.4178573,-0.3498585,-0.9144300
0.6050000,0.6050000,0.6050000,-0.4078581,-0.0006139,-1.8683462,-0.4078581,-0.3413003,-0.8959639
0.6075000,0.6075000,0.6075000,-0.3980837,-0.0006345,-1.8439135,-0.3980837,-0.3329591,-0.8776303
0.6100000,0.6100000,0.6100000,-0.3885336,-0.0006551,-1.8199045,-0.3885336,-0.3248313,-0.8594568
0.6125000,0.6125000,0.6125000,-0.3792066,-0.0006756,-1.7963105,-0.3792066,-0.3169130,-0.8414685
0.6150000,0.6150000,0.6150000,-0.3701008,-0.0006958,-1.7731229,-0.3701008,-0.3092003,-0.8236875
0.6175000,0.6175000,0.6175000,-0.3612139,-0.0007157,-1.7503332,-0.3612139,-0.3016891,-0.8061330
0.6200000,0.6200000,0.6200000,-0.3525434,-0.0007351,-1.7279333,-0.3525434,-0.2943750,-0.7888220
0.6225000,0.6225000,0.6225000,-0.3440862,-0.0007540,-1.7059149,-0.3440862,-0.2872537,-0.7717687
0.6250000,0.6250000,0.6250000,-0.3358390,-0.0007723,-1.6842703,-0.3358390,-0.2803208,-0.7549854
0.6275000,0.6275000,0.6275000,-0.3277982,-0.0007899,-1.6629917,-0.3277982,-0.2735719,-0.7384821
0.6300000,0.6300000,0.6300000,-0.3199600,-0.0008068,-1.6420717,-0.3199600,-0.2670024,-0.7222671
0.6325000,0.6325000,0.6325000,-0.3123207,-0.0008230,-1.6215027,-0.3123207,-0.2606080,-0.7063469
0.6350000,0.6350000,0.6350000,-0.3048761,-0.0008385,-1.6012776,-0.3048761,-0.2543841,-0.6907263
0.6375000,0.6375000,0.6375000,-0.2976222,-0.0008532,-1.5813894,-0.2976222,-0.2483266,-0.6754089
0.6400000,0.6400000,0.6400000,-0.2905548,-0.0008672,-1.5618311,-0.2905548,-0.2424308,-0.6603969
0.6425000,0.6425000,0.6425000,-0.2836697,-0.0008805,-1.5425961,-0.2836697,-0.2366927,-0.6456916
0.6450000,0.6450000,0.6450000,-0.2769626,-0.0008930,-1.5236778,-0.2769626,-0.2311079,-0.6312932
0.6475000,0.6475000,0.6475000,-0.2704294,-0.0009048,-1.5050697,-0.2704294,-0.2256723,-0.6172008
0.6500000,0.6500000,0.6500000,-0.2640658,-0.0009158,-1.4867656,-0.2640658,-0.2203819,-0.6034130
0.6525000,0.6525000,0.6525000,-0.2578677,-0.0009262,-1.4687594,-0.2578677,-0.2152326,-0.5899278
0.6550000,0.6550000,0.6550000,-0.2518308,-0.0009359,-1.4510450,-0.2518308,-0.2102206,-0.5767424
0.6575000,0.6575000,0.6575000,-0.2459512,-0.0009449,-1.4336165,-0.2459512,-0.2053419,-0.5638535
0.6600000,0.6600000,0.6600000,-0.2402247,-0.0009533,-1.4164684,-0.2402247,-0.2005929,-0.5512576
0.6625000,0.6625000,0.6625000,-0.2346474,-0.0009610,-1.3995950,-0.2346474,-0.1959698,-0.5389506
0.6650000,0.6650000,0.6650000,-0.2292152,-0.0009681,-1.3829907,-0.2292152,-0.1914693,-0.5269282
0.6675000,0.6675000,0.6675000,-0.2239245,-0.0009746,-1.3666504,-0.2239245,-0.1870877,-0.5151858
0.6700000,0.6700000,0.6700000,-0.2187714,-0.0009806,-1.3505688,-0.2187714,-0.1828216,-0.5037187
0.6725000,0.6725000,0.6725000,-0.2137521,-0.0009860,-1.3347408,-0.2137521,-0.1786679,-0.4925219
0.6750000,0.6750000,0.6750000,-0.2088632,-0.0009909,-1.3191614,-0.2088632,-0.1746233,-0.4815902
0.6775000,0.6775000,0.6775000,-0.2041009,-0.0009952,-1.3038257,-0.2041009,-0.1706846,-0.4709185
0.6800000,0.6800000,0.6800000,-0.1994620,-0.0009991,-1.2887291,-0.1994620,-0.1668489,-0.4605016
0.6825000,0.6825000,0.6825000,-0.1949429,-0.0010025,-1.2738668,-0.1949429,-0.1631131,-0.4503342
0.6850000,0.6850000,0.6850000,-0.1905405,-0.0010055,-1.2592343,-0.1905405,-0.1594745,-0.4404108
0.6875000,0.6875000,0.6875000,-0.1862514,-0.0010080,-1.2448273,-0.1862514,-0.1559302,-0.4307262
0.6900000,0.6900000,0.6900000,-0.1820725,-0.0010101,-1.2306413,-0.1820725,-0.1524776,-0.4212751
0.6925000,0.6925000,0.6925000,-0.1780009,-0.0010118,-1.2166722,-0.1780009,-0.1491140,-0.4120521
0.6950000,0.6950000,0.6950000,-0.1740334,-0.0010131,-1.2029157,-0.1740334,-0.1458369,-0.4030520
0.6975000,0.6975000,0.6975000,-0.1701673,-0.0010141,-1.1893679,-0.1701673,-0.1426438,-0.3942695
0.7000000,0.7000000,0.7000000,-0.1663997,-0.0010147,-1.1760248,-0.1663997,-0.1395323,-0.3856995
0.7025000,0.7025000,0.7025000,-0.1627278,-0.0010150,-1.1628824,-0.1627278,-0.1365001,-0.3773369
0.7050000,0.7050000,0.7050000,-0.1591491,-0.0010149,-1.1499372,-0.1591491,-0.1335449,-0.3691767
0.7075000,0.7075000,0.7075000,-0.1556609,-0.0010146,-1.1371853,-0.1556609,-0.1306645,-0.3612140
0.7100000,0.7100000,0.7100000,-0.1522607,-0.0010140,-1.1246231,-0.1522607,-0.1278569,-0.3534438
0.7125000,0.7125000,0.7125000,-0.1489460,-0.0010131,-1.1122471,-0.1489460,-0.1251199,-0.3458614
0.7150000,0.7150000,0.7150000,-0.1457145,-0.0010120,-1.1000539,-0.1457145,-0.1224516,-0.3384622
0.7175000,0.7175000,0.7175000,-0.1425639,-0.0010106,-1.0880401,-0.1425639,-0.1198499,-0.3312414
0.7200000,0.7200000,0.7200000,-0.1394920,-0.0010090,-1.0762023,-0.1394920,-0.1173132,-0.3241947
0.7225000,0.7225000,0.7225000,-0.1364964,-0.0010071,-1.0645373,-0.1364964,-0.1148394,-0.3173176
0.7250000,0.7250000,0.7250000,-0.1335753,-0.0010051,-1.0530420,-0.1335753,-0.1124269,-0.3106058
0.7275000,0.7275000,0.7275000,-0.1307263,-0.0010028,-1.0417133,-0.1307263,-0.1100739,-0.3040551
0.7300000,0.7300000,0.7300000,-0.1279477,-0.0010004,-1.0305481,-0.1279477,-0.1077788,-0.2976614
0.7325000,0.7325000,0.7325000,-0.1252375,-0.0009978,-1.0195436,-0.1252375,-0.1055399,-0.2914207
0.7350000,0.7350000,0.7350000,-0.1225937,-0.0009950,-1.0086967,-0.1225937,-0.1033558,-0.2853290
0.7375000,0.7375000,0.7375000,-0.1200146,-0.0009920,-0.9980047,-0.1200146,-0.1012248,-0.2793825
0.7400000,0.7400000,0.7400000,-0.1174983,-0.0009889,-0.9874648,-0.1174983,-0.0991455,-0.2735774
0.7425000,0.7425000,0.7425000,-0.1150433,-0.0009856,-0.9770742,-0.1150433,-0.0971166,-0.2679102
0.7450000,0.7450000,0.7450000,-0.1126477,-0.0009823,-0.9668304,-0.1126477,-0.0951365,-0.2623772
0.7475000,0.7475000,0.7475000,-0.1103100,-0.0009787,-0.9567307,-0.1103100,-0.0932040,-0.2569750
0.7500000,0.7500000,0.7500000,-0.1080286,-0.0009751,-0.9467726,-0.1080286,-0.0913178,-0.2517003
0.7525000,0.7525000,0.7525000,-0.1058019,-0.0009714,-0.9369535,-0.1058019,-0.0894766,-0.2465497
0.7550000,0.7550000,0.7550000,-0.1036286,-0.0009675,-0.9272712,-0.1036286,-0.0876791,-0.2415200
0.7575000,0.7575000,0.7575000,-0.1015072,-0.0009636,-0.9177230,-0.1015072,-0.0859243,-0.2366081
0.7600000,0.7600000,0.7600000,-0.0994362,-0.0009595,-0.9083068,-0.0994362,-0.0842109,-0.2318110
0.7625000,0.7625000,0.7625000,-0.0974143,-0.0009554,-0.8990203,-0.0974143,-0.0825379,-0.2271257
0.7650000,0.7650000,0.7650000,-0.0954402,-0.0009512,-0.8898611,-0.0954402,-0.0809040,-0.2225494
0.7675000,0.7675000,0.7675000,-0.0935126,-0.0009469,-0.8808272,-0.0935126,-0.0793084,-0.2180792
0.7700000,0.7700000,0.7700000,-0.0916303,-0.0009425,-0.8719163,-0.0916303,-0.0777500,-0.2137124
0.7725000,0.7725000,0.7725000,-0.0897921,-0.0009381,-0.8631264,-0.0897921,-0.0762277,-0.2094463
0.7750000,0.7750000,0.7750000,-0.0879968,-0.0009336,-0.8544553,-0.0879968,-0.0747407,-0.2052784
0.7775000,0.7775000,0.7775000,-0.0862433,-0.0009290,-0.8459011,-0.0862433,-0.0732880,-0.2012062
0.7800000,0.7800000,0.7800000,-0.0845305,-0.0009244,-0.8374619,-0.0845305,-0.0718686,-0.1972272
0.7825000,0.7825000,0.7825000,-0.0828572,-0.0009198,-0.8291355,-0.0828572,-0.0704818,-0.1933390
0.7850000,0.7850000,0.7850000,-0.0812225,-0.0009151,-0.8209203,-0.0812225,-0.0691266,-0.1895393
0.7875000,0.7875000,0.7875000,-0.0796254,-0.0009103,-0.8128142,-0.0796254,-0.0678022,-0.1858259
0.7900000,0.7900000,0.7900000,-0.0780649,-0.0009056,-0.8048155,-0.0780649,-0.0665079,-0.1821965
0.7925000,0.7925000,0.7925000,-0.0765400,-0.0009008,-0.7969224,-0.0765400,-0.0652428,-0.1786492
0.7950000,0.7950000,0.7950000,-0.0750498,-0.0008959,-0.7891332,-0.0750498,-0.0640063,-0.1751816
0.7975000,0.7975000,0.7975000,-0.0735934,-0.0008911,-0.7814460,-0.0735934,-0.0627974,-0.1717919
0.8000000,0.8000000,0.8000000,-0.0721700,-0.0008862,-0.7738593,-0.0721700,-0.0616156,-0.1684782
0.8025000,0.8025000,0.8025000,-0.0707786,-0.0008812,-0.7663714,-0.0707786,-0.0604602,-0.1652384
0.8050000,0.8050000,0.8050000,-0.0694186,-0.0008763,-0.7589807,-0.0694186,-0.0593304,-0.1620707
0.8075000,0.8075000,0.8075000,-0.0680889,-0.0008714,-0.7516856,-0.0680889,-0.0582257,-0.1589733
0.8100000,0.8100000,0.8100000,-0.0667890,-0.0008664,-0.7444845,-0.0667890,-0.0571453,-0.1559445
0.8125000,0.8125000,0.8125000,-0.0655181,-0.0008614,-0.7373759,-0.0655181,-0.0560887,-0.1529826
0.8150000,0.8150000,0.8150000,-0.0642753,-0.0008564,-0.7303584,-0.0642753,-0.0550553,-0.1500859
0.8175000,0.8175000,0.8175000,-0.0630600,-0.0008515,-0.7234304,-0.0630600,-0.0540444,-0.1472527
0.8200000,0.8200000,0.8200000,-0.0618715,-0.0008465,-0.7165905,-0.0618715,-0.0530556,-0.1444815
0.8225000,0.8225000,0.8225000,-0.0607092,-0.0008415,-0.7098374,-0.0607092,-0.0520882,-0.1417708
0.8250000,0.8250000,0.8250000,-0.0595723,-0.0008365,-0.7031696,-0.0595723,-0.0511417,-0.1391191
0.8275000,0.8275000,0.8275000,-0.0584603,-0.0008315,-0.6965858,-0.0584603,-0.0502157,-0.1365249
0.8300000,0.8300000,0.8300000,-0.0573725,-0.0008265,-0.6900846,-0.0573725,-0.0493096,-0.1339868
0.8325000,0.8325000,0.8325000,-0.0563083,-0.0008215,-0.6836648,-0.0563083,-0.0484228,-0.1315034
0.8350000,0.8350000,0.8350000,-0.0552671,-0.0008165,-0.6773251,-0.0552671,-0.0475550,-0.1290735
0.8375000,0.8375000,0.8375000,-0.0542484,-0.0008115,-0.6710642,-0.0542484,-0.0467057,-0.1266957
0.8400000,0.8400000,0.8400000,-0.0532517,-0.0008065,-0.6648809,-0.0532517,-0.0458744,-0.1243687
0.8425000,0.8425000,0.8425000,-0.0522763,-0.0008015,-0.6587739,-0.0522763,-0.0450607,-0.1220914
0.8450000,0.8450000,0.8450000,-0.0513217,-0.0007966,-0.6527422,-0.0513217,-0.0442641,-0.1198624
0.8475000,0.8475000,0.8475000,-0.0503875,-0.0007916,-0.6467845,-0.0503875,-0.0434842,-0.1176808
0.8500000,0.8500000,0.8500000,-0.0494732,-0.0007867,-0.6408996,-0.0494732,-0.0427207,-0.1155452
0.8525000,0.8525000,0.8525000,-0.0485782,-0.0007818,-0.6350866,-0.0485782,-0.0419731,-0.1134546
0.8550000,0.8550000,0.8550000,-0.0477021,-0.0007769,-0.6293442,-0.0477021,-0.0412411,-0.1114080
0.8575000,0.8575000,0.8575000,-0.0468445,-0.0007720,-0.6236714,-0.0468445,-0.0405242,-0.1094042
0.8600000,0.8600000,0.8600000,-0.0460048,-0.0007671,-0.6180672,-0.0460048,-0.0398222,-0.1074423
0.8625000,0.8625000,0.8625000,-0.0451828,-0.0007622,-0.6125304,-0.0451828,-0.0391346,-0.1055213
0.8650000,0.8650000,0.8650000,-0.0443779,-0.0007574,-0.6070601,-0.0443779,-0.0384611,-0.1036402
0.8675000,0.8675000,0.8675000,-0.0435897,-0.0007526,-0.6016553,-0.0435897,-0.0378015,-0.1017981
0.8700000,0.8700000,0.8700000,-0.0428179,-0.0007478,-0.5963150,-0.0428179,-0.0371553,-0.0999940
0.8725000,0.8725000,0.8725000,-0.0420620,-0.0007430,-0.5910382,-0.0420620,-0.0365222,-0.0982271
0.8750000,0.8750000,0.8750000,-0.0413218,-0.0007382,-0.5858240,-0.0413218,-0.0359020,-0.0964964
0.8775000,0.8775000,0.8775000,-0.0405967,-0.0007335,-0.5806714,-0.0405967,-0.0352943,-0.0948012
0.8800000,0.8800000,0.8800000,-0.0398865,-0.0007288,-0.5755795,-0.0398865,-0.0346989,-0.0931407
0.8825000,0.8825000,0.8825000,-0.0391908,-0.0007241,-0.5705475,-0.0391908,-0.0341154,-0.0915139
0.8850000,0.8850000,0.8850000,-0.0385093,-0.0007194,-0.5655744,-0.0385093,-0.0335436,-0.0899201
0.8875000,0.8875000,0.8875000,-0.0378416,-0.0007147,-0.5606594,-0.0378416,-0.0329832,-0.0883586
0.8900000,0.8900000,0.8900000,-0.0371874,-0.0007101,-0.5558016,-0.0371874,-0.0324340,-0.0868287
0.8925000,0.8925000,0.8925000,-0.0365465,-0.0007055,-0.5510002,-0.0365465,-0.0318957,-0.0853295
0.8950000,0.8950000,0.8950000,-0.0359184,-0.0007009,-0.5462544,-0.0359184,-0.0313680,-0.0838605
0.8975000,0.8975000,0.8975000,-0.0353030,-0.0006964,-0.5415633,-0.0353030,-0.0308507,-0.0824208
0.9000000,0.9000000,0.9000000,-0.0346998,-0.0006918,-0.5369262,-0.0346998,-0.0303436,-0.0810099
0.9025000,0.9025000,0.9025000,-0.0341087,-0.0006873,-0.5323423,-0.0341087,-0.0298464,-0.0796270
0.9050000,0.9050000,0.9050000,-0.0335294,-0.0006829,-0.5278108,-0.0335294,-0.0293590,-0.0782716
0.9075000,0.9075000,0.9075000,-0.0329616,-0.0006784,-0.5233310,-0.0329616,-0.0288810,-0.0769431
0.9100000,0.9100000,0.9100000,-0.0324050,-0.0006740,-0.5189021,-0.0324050,-0.0284123,-0.0756407
0.9125000,0.9125000,0.9125000,-0.0318593,-0.0006696,-0.5145234,-0.0318593,-0.0279527,-0.0743640
0.9150000,0.9150000,0.9150000,-0.0313244,-0.0006652,-0.5101942,-0.0313244,-0.0275019,-0.0731123
0.9175000,0.9175000,0.9175000,-0.0308000,-0.0006608,-0.5059138,-0.0308000,-0.0270599,-0.0718852
0.9200000,0.9200000,0.9200000,-0.0302859,-0.0006565,-0.5016815,-0.0302859,-0.0266263,-0.0706820
0.9225000,0.9225000,0.9225000,-0.0297818,-0.0006522,-0.4974966,-0.0297818,-0.0262009,-0.0695022
0.9250000,0.9250000,0.9250000,-0.0292874,-0.0006480,-0.4933584,-0.0292874,-0.0257838,-0.0683453
0.9275000,0.9275000,0.9275000,-0.0288027,-0.0006437,-0.4892664,-0.0288027,-0.0253745,-0.0672108
0.9300000,0.9300000,0.9300000,-0.0283273,-0.0006395,-0.4852198,-0.0283273,-0.0249730,-0.0660982
0.9325000,0.9325000,0.9325000,-0.0278611,-0.0006353,-0.4812180,-0.0278611,-0.0245791,-0.0650070
0.9350000,0.9350000,0.9350000,-0.0274039,-0.0006312,-0.4772604,-0.0274039,-0.0241926,-0.0639368
0.9375000,0.9375000,0.9375000,-0.0269554,-0.0006270,-0.4733464,-0.0269554,-0.0238133,-0.0628871
0.9400000,0.9400000,0.9400000,-0.0265155,-0.0006229,-0.4694754,-0.0265155,-0.0234412,-0.0618574
0.9425000,0.9425000,0.9425000,-0.0260840,-0.0006188,-0.4656467,-0.0260840,-0.0230760,-0.0608473
0.9450000,0.9450000,0.9450000,-0.0256607,-0.0006148,-0.4618599,-0.0256607,-0.0227176,-0.0598564
0.9475000,0.9475000,0.9475000,-0.0252454,-0.0006108,-0.4581143,-0.0252454,-0.0223658,-0.0588842
0.9500000,0.9500000,0.9500000,-0.0248380,-0.0006068,-0.4544094,-0.0248380,-0.0220206,-0.0579305
0.9525000,0.9525000,0.9525000,-0.0244382,-0.0006028,-0.4507446,-0.0244382,-0.0216818,-0.0569946
0.9550000,0.9550000,0.9550000,-0.0240460,-0.0005988,-0.4471193,-0.0240460,-0.0213491,-0.0560764
0.9575000,0.9575000,0.9575000,-0.0236611,-0.0005949,-0.4435331,-0.0236611,-0.0210226,-0.0551754
0.9600000,0.9600000,0.9600000,-0.0232834,-0.0005910,-0.4399854,-0.0232834,-0.0207021,-0.0542912
0.9625000,0.9625000,0.9625000,-0.0229128,-0.0005872,-0.4364757,-0.0229128,-0.0203874,-0.0534234
0.9650000,0.9650000,0.9650000,-0.0225491,-0.0005833,-0.4330034,-0.0225491,-0.0200784,-0.0525718
0.9675000,0.9675000,0.9675000,-0.0221921,-0.0005795,-0.4295682,-0.0221921,-0.0197750,-0.0517360
0.9700000,0.9700000,0.9700000,-0.0218417,-0.0005757,-0.4261694,-0.0218417,-0.0194771,-0.0509156
0.9725000,0.9725000,0.9725000,-0.0214977,-0.0005720,-0.4228066,-0.0214977,-0.0191846,-0.0501104
0.9750000,0.9750000,0.9750000,-0.0211601,-0.0005683,-0.4194793,-0.0211601,-0.0188973,-0.0493200
0.9775000,0.9775000,0.9775000,-0.0208287,-0.0005646,-0.4161871,-0.0208287,-0.0186152,-0.0485440
0.9800000,0.9800000,0.9800000,-0.0205033,-0.0005609,-0.4129294,-0.0205033,-0.0183382,-0.0477823
0.9825000,0.9825000,0.9825000,-0.0201839,-0.0005572,-0.4097059,-0.0201839,-0.0180660,-0.0470344
0.9850000,0.9850000,0.9850000,-0.0198703,-0.0005536,-0.4065160,-0.0198703,-0.0177987,-0.0463002
0.9875000,0.9875000,0.9875000,-0.0195624,-0.0005500,-0.4033594,-0.0195624,-0.0175362,-0.0455793
0.9900000,0.9900000,0.9900000,-0.0192601,-0.0005465,-0.4002356,-0.0192601,-0.0172783,-0.0448714
0.9925000,0.9925000,0.9925000,-0.0189632,-0.0005429,-0.3971442,-0.0189632,-0.0170249,-0.0441763
0.9950000,0.9950000,0.9950000,-0.0186716,-0.0005394,-0.3940847,-0.0186716,-0.0167760,-0.0434938
0.9975000,0.9975000,0.9975000,-0.0183853,-0.0005359,-0.3910568,-0.0183853,-0.0165314,-0.0428234
1.0000000,1.0000000,1.0000000,-0.0181042,-0.0005324,-0.3880600,-0.0181042,-0.0162912,-0.0421651
1.0025000,1.0025000,1.0025000,-0.0178280,-0.0005290,-0.3850939,-0.0178280,-0.0160551,-0.0415186
1.0050000,1.0050000,1.0050000,-0.0175568,-0.0005256,-0.3821582,-0.0175568,-0.0158231,-0.0408836
1.0075000,1.0075000,1.0075000,-0.0172904,-0.0005222,-0.3792524,-0.0172904,-0.0155951,-0.0402598
1.0100000,1.0100000,1.0100000,-0.0170287,-0.0005188,-0.3763761,-0.0170287,-0.0153711,-0.0396472
1.0125000,1.0125000,1.0125000,-0.0167717,-0.0005155,-0.3735291,-0.0167717,-0.0151509,-0.0390453
1.0150000,1.0150000,1.0150000,-0.0165191,-0.0005122,-0.3707109,-0.0165191,-0.0149345,-0.0384541
1.0175000,1.0175000,1.0175000,-0.0162710,-0.0005089,-0.3679211,-0.0162710,-0.0147219,-0.0378733
1.0200000,1.0200000,1.0200000,-0.0160273,-0.0005056,-0.3651594,-0.0160273,-0.0145128,-0.0373027
1.0225000,1.0225000,1.0225000,-0.0157878,-0.0005024,-0.3624254,-0.0157878,-0.0143074,-0.0367420
1.0250000,1.0250000,1.0250000,-0.0155525,-0.0004991,-0.3597189,-0.0155525,-0.0141054,-0.0361912
1.0275000,1.0275000,1.0275000,-0.0153214,-0.0004960,-0.3570393,-0.0153214,-0.0139068,-0.0356500
1.0300000,1.0300000,1.0300000,-0.0150942,-0.0004928,-0.3543865,-0.0150942,-0.0137116,-0.0351181
1.0325000,1.0325000,1.0325000,-0.0148709,-0.0004896,-0.3517600,-0.0148709,-0.0135197,-0.0345955
1.0350000,1.0350000,1.0350000,-0.0146515,-0.0004865,-0.3491596,-0.0146515,-0.0133310,-0.0340819
1.0375000,1.0375000,1.0375000,-0.0144359,-0.0004834,-0.3465849,-0.0144359,-0.0131455,-0.0335772
1.0400000,1.0400000,1.0400000,-0.0142240,-0.0004803,-0.3440356,-0.0142240,-0.0129631,-0.0330811
1.0425000,1.0425000,1.0425000,-0.0140158,-0.0004773,-0.3415113,-0.0140158,-0.0127837,-0.0325936
1.0450000,1.0450000,1.0450000,-0.0138111,-0.0004743,-0.3390119,-0.0138111,-0.0126073,-0.0321144
1.0475000,1.0475000,1.0475000,-0.0136098,-0.0004713,-0.3365369,-0.0136098,-0.0124339,-0.0316434
1.0500000,1.0500000,1.0500000,-0.0134121,-0.0004683,-0.3340861,-0.0134121,-0.0122633,-0.0311804
1.0525000,1.0525000,1.0525000,-0.0132176,-0.0004653,-0.3316591,-0.0132176,-0.0120955,-0.0307253
1.0550000,1.0550000,1.0550000,-0.0130265,-0.0004624,-0.3292557,-0.0130265,-0.0119305,-0.0302779
1.0575000,1.0575000,1.0575000,-0.0128386,-0.0004595,-0.3268757,-0.0128386,-0.0117682,-0.0298381
1.0600000,1.0600000,1.0600000,-0.0126538,-0.0004566,-0.3245186,-0.0126538,-0.0116086,-0.0294057
1.0625000,1.0625000,1.0625000,-0.0124722,-0.0004537,-0.3221843,-0.0124722,-0.0114515,-0.0289805
1.0650000,1.0650000,1.0650000,-0.0122936,-0.0004508,-0.3198724,-0.0122936,-0.0112970,-0.0285625
1.0675000,1.0675000,1.0675000,-0.0121180,-0.0004480,-0.3175827,-0.0121180,-0.0111451,-0.0281515
1.0700000,1.0700000,1.0700000,-0.0119453,-0.0004452,-0.3153149,-0.0119453,-0.0109955,-0.0277474
1.0725000,1.0725000,1.0725000,-0.0117755,-0.0004424,-0.3130688,-0.0117755,-0.0108484,-0.0273500
1.0750000,1.0750000,1.0750000,-0.0116085,-0.0004397,-0.3108441,-0.0116085,-0.0107037,-0.0269592
1.0775000,1.0775000,1.0775000,-0.0114443,-0.0004369,-0.3086405,-0.0114443,-0.0105613,-0.0265749
1.0800000,1.0800000,1.0800000,-0.0112828,-0.0004342,-0.3064578,-0.0112828,-0.0104212,-0.0261970
1.0825000,1.0825000,1.0825000,-0.0111239,-0.0004315,-0.3042957,-0.0111239,-0.0102833,-0.0258253
1.0850000,1.0850000,1.0850000,-0.0109677,-0.0004288,-0.3021541,-0.0109677,-0.0101476,-0.0254597
1.0875000,1.0875000,1.0875000,-0.0108140,-0.0004261,-0.3000326,-0.0108140,-0.0100141,-0.0251001
1.0900000,1.0900000,1.0900000,-0.0106629,-0.0004235,-0.2979310,-0.0106629,-0.0098827,-0.0247464
1.0925000,1.0925000,1.0925000,-0.0105142,-0.0004209,-0.2958491,-0.0105142,-0.0097534,-0.0243985
1.0950000,1.0950000,1.0950000,-0.0103679,-0.0004183,-0.2937866,-0.0103679,-0.0096261,-0.0240563
1.0975000,1.0975000,1.0975000,-0.0102240,-0.0004157,-0.2917434,-0.0102240,-0.0095008,-0.0237196
1.1000000,1.1000000,1.1000000,-0.0100825,-0.0004131,-0.2897192,-0.0100825,-0.0093775,-0.0233884
1.1025000,1.1025000,1.1025000,-0.0099432,-0.0004106,-0.2877137,-0.0099432,-0.0092562,-0.0230626
1.1050000,1.1050000,1.1050000,-0.0098062,-0.0004081,-0.2857268,-0.0098062,-0.0091367,-0.0227421
1.1075000,1.1075000,1.1075000,-0.0096713,-0.0004056,-0.2837583,-0.0096713,-0.0090191,-0.0224267
1.1100000,1.1100000,1.1100000,-0.0095387,-0.0004031,-0.2818078,-0.0095387,-0.0089033,-0.0221163
1.1125000,1.1125000,1.1125000,-0.0094082,-0.0004006,-0.2798754,-0.0094082,-0.0087893,-0.0218110
1.1150000,1.1150000,1.1150000,-0.0092797,-0.0003982,-0.2779606,-0.0092797,-0.0086770,-0.0215106
1.1175000,1.1175000,1.1175000,-0.0091533,-0.0003957,-0.2760633,-0.0091533,-0.0085665,-0.0212149
1.1200000,1.1200000,1.1200000,-0.0090289,-0.0003933,-0.2741834,-0.0090289,-0.0084577,-0.0209240
1.1225000,1.1225000,1.1225000,-0.0089065,-0.0003909,-0.2723205,-0.0089065,-0.0083506,-0.0206377
1.1250000,1.1250000,1.1250000,-0.0087860,-0.0003886,-0.2704746,-0.0087860,-0.0082451,-0.0203559
1.1275000,1.1275000,1.1275000,-0.0086675,-0.0003862,-0.2686454,-0.0086675,-0.0081412,-0.0200786
1.1300000,1.1300000,1.1300000,-0.0085508,-0.0003839,-0.2668328,-0.0085508,-0.0080389,-0.0198057
1.1325000,1.1325000,1.1325000,-0.0084359,-0.0003816,-0.2650364,-0.0084359,-0.0079382,-0.0195371
1.1350000,1.1350000,1.1350000,-0.0083228,-0.0003793,-0.2632563,-0.0083228,-0.0078390,-0.0192727
1.1375000,1.1375000,1.1375000,-0.0082115,-0.0003770,-0.2614921,-0.0082115,-0.0077413,-0.0190125
1.1400000,1.1400000,1.1400000,-0.0081020,-0.0003747,-0.2597438,-0.0081020,-0.0076450,-0.0187563
1.1425000,1.1425000,1.1425000,-0.0079941,-0.0003724,-0.2580110,-0.0079941,-0.0075502,-0.0185041
1.1450000,1.1450000,1.1450000,-0.0078880,-0.0003702,-0.2562938,-0.0078880,-0.0074568,-0.0182559
1.1475000,1.1475000,1.1475000,-0.0077834,-0.0003680,-0.2545917,-0.0077834,-0.0073649,-0.0180115
1.1500000,1.1500000,1.1500000,-0.0076805,-0.0003658,-0.2529048,-0.0076805,-0.0072743,-0.0177709
1.1525000,1.1525000,1.1525000,-0.0075792,-0.0003636,-0.2512329,-0.0075792,-0.0071850,-0.0175340
1.1550000,1.1550000,1.1550000,-0.0074794,-0.0003614,-0.2495757,-0.0074794,-0.0070971,-0.0173008
1.1575000,1.1575000,1.1575000,-0.0073812,-0.0003593,-0.2479331,-0.0073812,-0.0070105,-0.0170712
1.1600000,1.1600000,1.1600000,-0.0072845,-0.0003572,-0.2463050,-0.0072845,-0.0069251,-0.0168451
1.1625000,1.1625000,1.1625000,-0.0071892,-0.0003550,-0.2446911,-0.0071892,-0.0068411,-0.0166225
1.1650000,1.1650000,1.1650000,-0.0070954,-0.0003529,-0.2430914,-0.0070954,-0.0067582,-0.0164033
1.1675000,1.1675000,1.1675000,-0.0070031,-0.0003508,-0.2415057,-0.0070031,-0.0066766,-0.0161875
1.1700000,1.1700000,1.1700000,-0.0069121,-0.0003488,-0.2399338,-0.0069121,-0.0065962,-0.0159749
1.1725000,1.1725000,1.1725000,-0.0068225,-0.0003467,-0.2383755,-0.0068225,-0.0065169,-0.0157656
1.1750000,1.1750000,1.1750000,-0.0067343,-0.0003447,-0.2368308,-0.0067343,-0.0064388,-0.0155594
1.1775000,1.1775000,1.1775000,-0.0066474,-0.0003426,-0.2352995,-0.0066474,-0.0063618,-0.0153564
1.1800000,1.1800000,1.1800000,-0.0065619,-0.0003406,-0.2337814,-0.0065619,-0.0062860,-0.0151564
1.1825000,1.1825000,1.1825000,-0.0064776,-0.0003386,-0.2322764,-0.0064776,-0.0062112,-0.0149595
1.1850000,1.1850000,1.1850000,-0.0063945,-0.0003367,-0.2307843,-0.0063945,-0.0061376,-0.0147655
1.1875000,1.1875000,1.1875000,-0.0063127,-0.0003347,-0.2293050,-0.0063127,-0.0060650,-0.0145744
1.1900000,1.1900000,1.1900000,-0.0062322,-0.0003327,-0.2278384,-0.0062322,-0.0059934,-0.0143862
1.1925000,1.1925000,1.1925000,-0.0061528,-0.0003308,-0.2263844,-0.0061528,-0.0059228,-0.0142008
1.1950000,1.1950000,1.1950000,-0.0060746,-0.0003289,-0.2249427,-0.0060746,-0.0058533,-0.0140182
1.1975000,1.1975000,1.1975000,-0.0059976,-0.0003270,-0.2235133,-0.0059976,-0.0057848,-0.0138382
1.2000000,1.2000000,1.2000000,-0.0059217,-0.0003251,-0.2220961,-0.0059217,-0.0057172,-0.0136610
1.2025000,1.2025000,1.2025000,-0.0058469,-0.0003232,-0.2206908,-0.0058469,-0.0056506,-0.0134864
1.2050000,1.2050000,1.2050000,-0.0057733,-0.0003213,-0.2192974,-0.0057733,-0.0055849,-0.0133144
1.2075000,1.2075000,1.2075000,-0.0057007,-0.0003195,-0.2179158,-0.0057007,-0.0055202,-0.0131449
1.2100000,1.2100000,1.2100000,-0.0056292,-0.0003176,-0.2165458,-0.0056292,-0.0054564,-0.0129779
1.2125000,1.2125000,1.2125000,-0.0055587,-0.0003158,-0.2151874,-0.0055587,-0.0053934,-0.0128133
1.2150000,1.2150000,1.2150000,-0.0054893,-0.0003140,-0.2138403,-0.0054893,-0.0053314,-0.0126512
1.2175000,1.2175000,1.2175000,-0.0054209,-0.0003122,-0.2125044,-0.0054209,-0.0052702,-0.0124915
1.2200000,1.2200000,1.2200000,-0.0053534,-0.0003104,-0.2111798,-0.0053534,-0.0052099,-0.0123340
1.2225000,1.2225000,1.2225000,-0.0052870,-0.0003086,-0.2098661,-0.0052870,-0.0051504,-0.0121789
1.2250000,1.2250000,1.2250000,-0.0052215,-0.0003069,-0.2085634,-0.0052215,-0.0050918,-0.0120261
1.2275000,1.2275000,1.2275000,-0.0051570,-0.0003051,-0.2072715,-0.0051570,-0.0050339,-0.0118754
1.2300000,1.2300000,1.2300000,-0.0050933,-0.0003034,-0.2059902,-0.0050933,-0.0049769,-0.0117269
1.2325000,1.2325000,1.2325000,-0.0050306,-0.0003017,-0.2047196,-0.0050306,-0.0049206,-0.0115806
1.2350000,1.2350000,1.2350000,-0.0049689,-0.0002999,-0.2034594,-0.0049689,-0.0048652,-0.0114364
1.2375000,1.2375000,1.2375000,-0.0049080,-0.0002982,-0.2022096,-0.0049080,-0.0048105,-0.0112943
1.2400000,1.2400000,1.2400000,-0.0048479,-0.0002966,-0.2009700,-0.0048479,-0.0047565,-0.0111542
1.2425000,1.2425000,1.2425000,-0.0047887,-0.0002949,-0.1997406,-0.0047887,-0.0047033,-0.0110161
1.2450000,1.2450000,1.2450000,-0.0047304,-0.0002932,-0.1985212,-0.0047304,-0.0046508,-0.0108800
1.2475000,1.2475000,1.2475000,-0.0046729,-0.0002916,-0.1973118,-0.0046729,-0.0045990,-0.0107458
1.2500000,1.2500000,1.2500000,-0.0046162,-0.0002899,-0.1961122,-0.0046162,-0.0045479,-0.0106136
1.2525000,1.2525000,1.2525000,-0.0045603,-0.0002883,-0.1949224,-0.0045603,-0.0044975,-0.0104832
1.2550000,1.2550000,1.2550000,-0.0045052,-0.0002867,-0.1937422,-0.0045052,-0.0044478,-0.0103547
1.2575000,1.2575000,1.2575000,-0.0044509,-0.0002851,-0.1925715,-0.0044509,-0.0043988,-0.0102280
1.2600000,1.2600000,1.2600000,-0.0043974,-0.0002835,-0.1914103,-0.0043974,-0.0043504,-0.0101031
1.2625000,1.2625000,1.2625000,-0.0043445,-0.0002819,-0.1902585,-0.0043445,-0.0043027,-0.0099800
1.2650000,1.2650000,1.2650000,-0.0042925,-0.0002804,-0.1891159,-0.0042925,-0.0042556,-0.0098586
1.2675000,1.2675000,1.2675000,-0.0042412,-0.0002788,-0.1879825,-0.0042412,-0.0042091,-0.0097388
1.2700000,1.2700000,1.2700000,-0.0041905,-0.0002773,-0.1868581,-0.0041905,-0.0041633,-0.0096208
1.2725000,1.2725000,1.2725000,-0.0041406,-0.0002757,-0.1857428,-0.0041406,-0.0041180,-0.0095045
1.2750000,1.2750000,1.2750000,-0.0040914,-0.0002742,-0.1846363,-0.0040914,-0.0040734,-0.0093897
1.2775000,1.2775000,1.2775000,-0.0040429,-0.0002727,-0.1835386,-0.0040429,-0.0040294,-0.0092766
1.2800000,1.2800000,1.2800000,-0.0039950,-0.0002712,-0.1824497,-0.0039950,-0.0039859,-0.0091650
1.2825000,1.2825000,1.2825000,-0.0039478,-0.0002697,-0.1813693,-0.0039478,-0.0039430,-0.0090550
1.2850000,1.2850000,1.2850000,-0.0039012,-0.0002682,-0.1802975,-0.0039012,-0.0039007,-0.0089465
1.2875000,1.2875000,1.2875000,-0.0038553,-0.0002667,-0.1792342,-0.0038553,-0.0038590,-0.0088395
1.2900000,1.2900000,1.2900000,-0.0038101,-0.0002653,-0.1781793,-0.0038101,-0.0038177,-0.0087339
1.2925000,1.2925000,1.2925000,-0.0037654,-0.0002638,-0.1771326,-0.0037654,-0.0037771,-0.0086299
1.2950000,1.2950000,1.2950000,-0.0037214,-0.0002624,-0.1760942,-0.0037214,-0.0037369,-0.0085272
1.2975000,1.2975000,1.2975000,-0.0036779,-0.0002610,-0.1750639,-0.0036779,-0.0036973,-0.0084260
1.3000000,1.3000000,1.3000000,-0.0036350,-0.0002595,-0.1740416,-0.0036350,-0.0036582,-0.0083262
1.3025000,1.3025000,1.3025000,-0.0035928,-0.0002581,-0.1730273,-0.0035928,-0.0036196,-0.0082277
1.3050000,1.3050000,1.3050000,-0.0035511,-0.0002567,-0.1720209,-0.0035511,-0.0035815,-0.0081306
1.3075000,1.3075000,1.3075000,-0.0035099,-0.0002553,-0.1710223,-0.0035099,-0.0035439,-0.0080347
1.3100000,1.3100000,1.3100000,-0.0034694,-0.0002540,-0.1700315,-0.0034694,-0.0035067,-0.0079402
1.3125000,1.3125000,1.3125000,-0.0034293,-0.0002526,-0.1690483,-0.0034293,-0.0034701,-0.0078470
1.3150000,1.3150000,1.3150000,-0.0033898,-0.0002512,-0.1680727,-0.0033898,-0.0034339,-0.0077551
1.3175000,1.3175000,1.3175000,-0.0033509,-0.0002499,-0.1671047,-0.0033509,-0.0033982,-0.0076643
1.3200000,1.3200000,1.3200000,-0.0033124,-0.0002485,-0.1661441,-0.0033124,-0.0033629,-0.0075748
1.3225000,1.3225000,1.3225000,-0.0032745,-0.0002472,-0.1651908,-0.0032745,-0.0033281,-0.0074865
1.3250000,1.3250000,1.3250000,-0.0032371,-0.0002459,-0.1642449,-0.0032371,-0.0032937,-0.0073994
1.3275000,1.3275000,1.3275000,-0.0032002,-0.0002446,-0.1633062,-0.0032002,-0.0032598,-0.0073135
1.3300000,1.3300000,1.3300000,-0.0031638,-0.0002433,-0.1623746,-0.0031638,-0.0032263,-0.0072287
1.3325000,1.3325000,1.3325000,-0.0031278,-0.0002420,-0.1614502,-0.0031278,-0.0031932,-0.0071451
1.3350000,1.3350000,1.3350000,-0.0030924,-0.0002407,-0.1605328,-0.0030924,-0.0031606,-0.0070625
1.3375000,1.3375000,1.3375000,-0.0030574,-0.0002394,-0.1596223,-0.0030574,-0.0031283,-0.0069811
1.3400000,1.3400000,1.3400000,-0.0030228,-0.0002381,-0.1587188,-0.0030228,-0.0030964,-0.0069007
1.3425000,1.3425000,1.3425000,-0.0029887,-0.0002369,-0.1578220,-0.0029887,-0.0030650,-0.0068214
1.3450000,1.3450000,1.3450000,-0.0029551,-0.0002356,-0.1569321,-0.0029551,-0.0030339,-0.0067432
1.3475000,1.3475000,1.3475000,-0.0029219,-0.0002344,-0.1560488,-0.0029219,-0.0030033,-0.0066660
1.3500000,1.3500000,1.3500000,-0.0028892,-0.0002331,-0.1551722,-0.0028892,-0.0029730,-0.0065898
1.3525000,1.3525000,1.3525000,-0.0028568,-0.0002319,-0.1543021,-0.0028568,-0.0029431,-0.0065146
1.3550000,1.3550000,1.3550000,-0.0028249,-0.0002307,-0.1534386,-0.0028249,-0.0029135,-0.0064404
1.3575000,1.3575000,1.3575000,-0.0027935,-0.0002295,-0.1525815,-0.0027935,-0.0028843,-0.0063672
1.3600000,1.3600000,1.3600000,-0.0027624,-0.0002283,-0.1517308,-0.0027624,-0.0028555,-0.0062949
1.3625000,1.3625000,1.3625000,-0.0027317,-0.0002271,-0.1508864,-0.0027317,-0.0028270,-0.0062236
1.3650000,1.3650000,1.3650000,-0.0027014,-0.0002259,-0.1500484,-0.0027014,-0.0027989,-0.0061532
1.3675000,1.3675000,1.3675000,-0.0026715,-0.0002247,-0.1492165,-0.0026715,-0.0027711,-0.0060837
1.3700000,1.3700000,1.3700000,-0.0026420,-0.0002236,-0.1483908,-0.0026420,-0.0027437,-0.0060152
1.3725000,1.3725000,1.3725000,-0.0026129,-0.0002224,-0.1475712,-0.0026129,-0.0027166,-0.0059475
1.3750000,1.3750000,1.3750000,-0.0025842,-0.0002213,-0.1467576,-0.0025842,-0.0026898,-0.0058807
1.3775000,1.3775000,1.3775000,-0.0025558,-0.0002201,-0.1459500,-0.0025558,-0.0026634,-0.0058147
1.3800000,1.3800000,1.3800000,-0.0025278,-0.0002190,-0.1451484,-0.0025278,-0.0026373,-0.0057496
1.3825000,1.3825000,1.3825000,-0.0025001,-0.0002178,-0.1443526,-0.0025001,-0.0026115,-0.0056854
1.3850000,1.3850000,1.3850000,-0.0024728,-0.0002167,-0.1435627,-0.0024728,-0.0025860,-0.0056220
1.3875000,1.3875000,1.3875000,-0.0024459,-0.0002156,-0.1427785,-0.0024459,-0.0025608,-0.0055594
1.3900000,1.3900000,1.3900000,-0.0024193,-0.0002145,-0.1420000,-0.0024193,-0.0025359,-0.0054975
1.3925000,1.3925000,1.3925000,-0.0023930,-0.0002134,-0.1412272,-0.0023930,-0.0025113,-0.0054365
1.3950000,1.3950000,1.3950000,-0.0023671,-0.0002123,-0.1404601,-0.0023671,-0.0024870,-0.0053763
1.3975000,1.3975000,1.3975000,-0.0023414,-0.0002112,-0.1396985,-0.0023414,-0.0024630,-0.0053168
1.4000000,1.4000000,1.4000000,-0.0023162,-0.0002101,-0.1389424,-0.0023162,-0.0024393,-0.0052581
1.4025000,1.4025000,1.4025000,-0.0022912,-0.0002091,-0.1381917,-0.0022912,-0.0024159,-0.0052001
1.4050000,1.4050000,1.4050000,-0.0022665,-0.0002080,-0.1374465,-0.0022665,-0.0023927,-0.0051429
1.4075000,1.4075000,1.4075000,-0.0022422,-0.0002069,-0.1367067,-0.0022422,-0.0023698,-0.0050864
1.4100000,1.4100000,1.4100000,-0.0022181,-0.0002059,-0.1359721,-0.0022181,-0.0023472,-0.0050306
1.4125000,1.4125000,1.4125000,-0.0021944,-0.0002049,-0.1352429,-0.0021944,-0.0023249,-0.0049755
1.4150000,1.4150000,1.4150000,-0.0021710,-0.0002038,-0.1345188,-0.0021710,-0.0023028,-0.0049211
1.4175000,1.4175000,1.4175000,-0.0021478,-0.0002028,-0.1337999,-0.0021478,-0.0022810,-0.0048673
1.4200000,1.4200000,1.4200000,-0.0021250,-0.0002018,-0.1330862,-0.0021250,-0.0022594,-0.0048143
1.4225000,1.4225000,1.4225000,-0.0021024,-0.0002008,-0.1323775,-0.0021024,-0.0022381,-0.0047619
1.4250000,1.4250000,1.4250000,-0.0020801,-0.0001997,-0.1316739,-0.0020801,-0.0022170,-0.0047102
1.4275000,1.4275000,1.4275000,-0.0020580,-0.0001987,-0.1309753,-0.0020580,-0.0021962,-0.0046591
1.4300000,1.4300000,1.4300000,-0.0020363,-0.0001977,-0.1302816,-0.0020363,-0.0021756,-0.0046086
1.4325000,1.4325000,1.4325000,-0.0020148,-0.0001968,-0.1295928,-0.0020148,-0.0021553,-0.0045588
1.4350000,1.4350000,1.4350000,-0.0019936,-0.0001958,-0.1289089,-0.0019936,-0.0021352,-0.0045096
1.4375000,1.4375000,1.4375000,-0.0019726,-0.0001948,-0.1282298,-0.0019726,-0.0021153,-0.0044610
1.4400000,1.4400000,1.4400000,-0.0019519,-0.0001938,-0.1275555,-0.0019519,-0.0020956,-0.0044130
1.4425000,1.4425000,1.4425000,-0.0019315,-0.0001929,-0.1268859,-0.0019315,-0.0020762,-0.0043656
1.4450000,1.4450000,1.4450000,-0.0019113,-0.0001919,-0.1262210,-0.0019113,-0.0020570,-0.0043188
1.4475000,1.4475000,1.4475000,-0.0018913,-0.0001910,-0.1255607,-0.0018913,-0.0020381,-0.0042726
1.4500000,1.4500000,1.4500000,-0.0018716,-0.0001900,-0.1249051,-0.0018716,-0.0020193,-0.0042269
1.4525000,1.4525000,1.4525000,-0.0018522,-0.0001891,-0.1242540,-0.0018522,-0.0020008,-0.0041818
1.4550000,1.4550000,1.4550000,-0.0018329,-0.0001881,-0.1236075,-0.0018329,-0.0019824,-0.0041373
1.4575000,1.4575000,1.4575000,-0.0018139,-0.0001872,-0.1229654,-0.0018139,-0.0019643,-0.0040932
1.4600000,1.4600000,1.4600000,-0.0017952,-0.0001863,-0.1223279,-0.0017952,-0.0019464,-0.0040498
1.4625000,1.4625000,1.4625000,-0.0017766,-0.0001854,-0.1216947,-0.0017766,-0.0019287,-0.0040068
1.4650000,1.4650000,1.4650000,-0.0017583,-0.0001845,-0.1210659,-0.0017583,-0.0019111,-0.0039644
1.4675000,1.4675000,1.4675000,-0.0017402,-0.0001836,-0.1204414,-0.0017402,-0.0018938,-0.0039225
1.4700000,1.4700000,1.4700000,-0.0017223,-0.0001827,-0.1198212,-0.0017223,-0.0018767,-0.0038811
1.4725000,1.4725000,1.4725000,-0.0017047,-0.0001818,-0.1192053,-0.0017047,-0.0018598,-0.0038402
1.4750000,1.4750000,1.4750000,-0.0016872,-0.0001809,-0.1185936,-0.0016872,-0.0018430,-0.0037998
1.4775000,1.4775000,1.4775000,-0.0016700,-0.0001800,-0.1179861,-0.0016700,-0.0018265,-0.0037599
1.4800000,1.4800000,1.4800000,-0.0016529,-0.0001791,-0.1173828,-0.0016529,-0.0018101,-0.0037204
1.4825000,1.4825000,1.4825000,-0.0016361,-0.0001783,-0.1167836,-0.0016361,-0.0017939,-0.0036815
1.4850000,1.4850000,1.4850000,-0.0016194,-0.0001774,-0.1161884,-0.0016194,-0.0017779,-0.0036430
1.4875000,1.4875000,1.4875000,-0.0016030,-0.0001765,-0.1155973,-0.0016030,-0.0017621,-0.0036049
1.4900000,1.4900000,1.4900000,-0.0015868,-0.0001757,-0.1150102,-0.0015868,-0.0017464,-0.0035673
1.4925000,1.4925000,1.4925000,-0.0015707,-0.0001748,-0.1144271,-0.0015707,-0.0017310,-0.0035302
1.4950000,1.4950000,1.4950000,-0.0015548,-0.0001740,-0.1138480,-0.0015548,-0.0017157,-0.0034935
1.4975000,1.4975000,1.4975000,-0.0015392,-0.0001732,-0.1132727,-0.0015392,-0.0017005,-0.0034573
1.5000000,1.5000000,1.5000000,-0.0015237,-0.0001723,-0.1127014,-0.0015237,-0.0016855,-0.0034214
1.5025000,1.5025000,1.5025000,-0.0015084,-0.0001715,-0.1121339,-0.0015084,-0.0016707,-0.0033860
1.5050000,1.5050000,1.5050000,-0.0014932,-0.0001707,-0.1115702,-0.0014932,-0.0016561,-0.0033511
1.5075000,1.5075000,1.5075000,-0.0014783,-0.0001699,-0.1110102,-0.0014783,-0.0016416,-0.0033165
1.5100000,1.5100000,1.5100000,-0.0014635,-0.0001691,-0.1104541,-0.0014635,-0.0016273,-0.0032823
1.5125000,1.5125000,1.5125000,-0.0014489,-0.0001682,-0.1099016,-0.0014489,-0.0016131,-0.0032486
1.5150000,1.5150000,1.5150000,-0.0014344,-0.0001674,-0.1093529,-0.0014344,-0.0015991,-0.0032152
1.5175000,1.5175000,1.5175000,-0.0014202,-0.0001667,-0.1088078,-0.0014202,-0.0015852,-0.0031822
1.5200000,1.5200000,1.5200000,-0.0014061,-0.0001659,-0.1082663,-0.0014061,-0.0015715,-0.0031497
1.5225000,1.5225000,1.5225000,-0.0013921,-0.0001651,-0.1077284,-0.0013921,-0.0015579,-0.0031175
1.5250000,1.5250000,1.5250000,-0.0013784,-0.0001643,-0.1071941,-0.0013784,-0.0015445,-0.0030856
1.5275000,1.5275000,1.5275000,-0.0013647,-0.0001635,-0.1066633,-0.0013647,-0.0015312,-0.0030542
1.5300000,1.5300000,1.5300000,-0.0013513,-0.0001627,-0.1061360,-0.0013513,-0.0015181,-0.0030231
1.5325000,1.5325000,1.5325000,-0.0013380,-0.0001620,-0.1056122,-0.0013380,-0.0015051,-0.0029924
1.5350000,1.5350000,1.5350000,-0.0013248,-0.0001612,-0.1050919,-0.0013248,-0.0014922,-0.0029620
1.5375000,1.5375000,1.5375000,-0.0013118,-0.0001605,-0.1045750,-0.0013118,-0.0014795,-0.0029320
1.5400000,1.5400000,1.5400000,-0.0012989,-0.0001597,-0.1040614,-0.0012989,-0.0014669,-0.0029023
1.5425000,1.5425000,1.5425000,-0.0012862,-0.0001590,-0.1035513,-0.0012862,-0.0014545,-0.0028730
1.5450000,1.5450000,1.5450000,-0.0012737,-0.0001582,-0.1030444,-0.0012737,-0.0014422,-0.0028440
1.5475000,1.5475000,1.5475000,-0.0012613,-0.0001575,-0.1025409,-0.0012613,-0.0014300,-0.0028154
1.5500000,1.5500000,1.5500000,-0.0012490,-0.0001567,-0.1020407,-0.0012490,-0.0014179,-0.0027871
1.5525000,1.5525000,1.5525000,-0.0012368,-0.0001560,-0.1015437,-0.0012368,-0.0014060,-0.0027591
1.5550000,1.5550000,1.5550000,-0.0012248,-0.0001553,-0.1010500,-0.0012248,-0.0013942,-0.0027314
1.5575000,1.5575000,1.5575000,-0.0012130,-0.0001546,-0.1005594,-0.0012130,-0.0013825,-0.0027040
1.5600000,1.5600000,1.5600000,-0.0012012,-0.0001539,-0.1000720,-0.0012012,-0.0013709,-0.0026770
1.5625000,1.5625000,1.5625000,-0.0011896,-0.0001531,-0.0995878,-0.0011896,-0.0013595,-0.0026502
1.5650000,1.5650000,1.5650000,-0.0011782,-0.0001524,-0.0991067,-0.0011782,-0.0013482,-0.0026238
1.5675000,1.5675000,1.5675000,-0.0011668,-0.0001517,-0.0986288,-0.0011668,-0.0013370,-0.0025977
1.5700000,1.5700000,1.5700000,-0.0011556,-0.0001510,-0.0981538,-0.0011556,-0.0013259,-0.0025718
1.5725000,1.5725000,1.5725000,-0.0011445,-0.0001503,-0.0976820,-0.0011445,-0.0013149,-0.0025463
1.5750000,1.5750000,1.5750000,-0.0011336,-0.0001496,-0.0972132,-0.0011336,-0.0013041,-0.0025210
1.5775000,1.5775000,1.5775000,-0.0011227,-0.0001490,-0.0967473,-0.0011227,-0.0012933,-0.0024961
1.5800000,1.5800000,1.5800000,-0.0011120,-0.0001483,-0.0962845,-0.0011120,-0.0012827,-0.0024714
1.5825000,1.5825000,1.5825000,-0.0011014,-0.0001476,-0.0958246,-0.0011014,-0.0012722,-0.0024470
1.5850000,1.5850000,1.5850000,-0.0010909,-0.0001469,-0.0953676,-0.0010909,-0.0012617,-0.0024229
1.5875000,1.5875000,1.5875000,-0.0010806,-0.0001463,-0.0949136,-0.0010806,-0.0012514,-0.0023990
1.5900000,1.5900000,1.5900000,-0.0010703,-0.0001456,-0.0944624,-0.0010703,-0.0012412,-0.0023754
1.5925000,1.5925000,1.5925000,-0.0010602,-0.0001449,-0.0940141,-0.0010602,-0.0012311,-0.0023521
1.5950000,1.5950000,1.5950000,-0.0010501,-0.0001443,-0.0935686,-0.0010501,-0.0012211,-0.0023290
1.5975000,1.5975000,1.5975000,-0.0010402,-0.0001436,-0.0931260,-0.0010402,-0.0012113,-0.0023062
