# r[nm],d[nm],daligned[nm],U(d)[kj/mol],V(d)[e/nm],Uslab(d)[kJ/mol],UC(d)[kJ/mol],UK(d)[kJ/mol],UCl(d)[kJ/mol]
0.1925000,0.1925000,0.1925000,1705.0138001,0.0859706,100.4159757,1705.0138001,1074.6129065,inf
0.1950000,0.1950000,0.1950000,1483.2859303,0.0691686,87.8628836,1483.2859303,933.9317463,inf
0.1975000,0.1975000,0.1975000,1287.0610394,-0.0956419,76.9907908,1287.0610394,811.9350891,inf
0.2000000,0.2000000,0.2000000,1114.3684574,-0.1127957,67.5590543,1114.3684574,703.9397735,inf
0.2025000,0.2025000,0.2025000,966.3807735,-0.1137281,59.3650206,966.3807735,610.2217325,inf
0.2050000,0.2050000,0.2050000,839.4701912,-0.1141039,52.2372758,839.4701912,529.7538510,inf
0.2075000,0.2075000,0.2075000,730.4345162,-0.1143400,46.0299691,730.4345162,460.6565718,inf
0.2100000,0.2100000,0.2100000,636.5872152,-0.1144666,40.6181212,636.5872152,401.2333956,inf
0.2125000,0.2125000,0.2125000,555.6722336,-0.1144912,35.8938989,555.6722336,350.0450638,inf
0.2150000,0.2150000,0.2150000,485.7907623,-0.1144165,31.7638378,485.7907623,305.8776434,inf
0.2175000,0.2175000,0.2175000,425.3410192,-0.1142414,28.1469041,425.3410192,267.7062729,1782.4059799
0.2200000,0.2200000,0.2200000,372.9687129,-0.1139603,24.9731561,372.9687129,234.6639600,1564.6810244
0.2225000,0.2225000,0.2225000,327.5261871,-0.1135627,22.1826964,327.5261871,206.0157455,1375.3697325
0.2250000,0.2250000,0.2250000,288.0386462,-0.1130330,19.7246538,288.0386462,181.1375025,1210.5127568
0.2275000,0.2275000,0.2275000,253.6762075,-0.1123511,17.5560691,253.6762075,159.4985545,1066.7396683
0.2300000,0.2300000,0.2300000,223.7307908,-0.1114942,15.6406978,223.7307908,140.6473442,941.1757137
0.2325000,0.2325000,0.2325000,197.5970496,-0.1104395,13.9478189,197.5970496,124.1994731,831.3642286
0.2350000,0.2350000,0.2350000,174.7566714,-0.1091682,12.4511417,174.7566714,109.8275633,735.2019300
0.2375000,0.2375000,0.2375000,154.7654383,-0.1076693,11.1278602,154.7654383,97.2525524,650.8848294
0.2400000,0.2400000,0.2400000,137.2424901,-0.1059437,9.9578593,137.2424901,86.2361869,576.8629246
0.2425000,0.2425000,0.2425000,121.8612818,-0.1040049,8.9230286,121.8612818,76.5745829,511.8021617
0.2450000,0.2450000,0.2450000,108.3418266,-0.1018780,8.0066363,108.3418266,68.0927676,454.5524296
0.2475000,0.2475000,0.2475000,96.4439334,-0.0995951,7.1927788,96.4439334,60.6401134,404.1205641
0.2500000,0.2500000,0.2500000,85.9612782,-0.0971904,6.4660353,85.9612782,54.0865544,359.6475203
0.2525000,0.2525000,0.2525000,76.7162382,-0.0946944,5.8115088,76.7162382,48.3194645,320.3890196
0.2550000,0.2550000,0.2550000,68.5554562,-0.0921312,5.2153242,68.5554562,43.2410730,285.6991069
0.2575000,0.2575000,0.2575000,61.3460971,-0.0895171,4.6654294,61.3460971,38.7663097,255.0161672
0.2600000,0.2600000,0.2600000,54.9727330,-0.0868614,4.1523482,54.9727330,34.8209919,227.8510414
0.2625000,0.2625000,0.2625000,49.3347694,-0.0841685,3.6695236,49.3347694,31.3402923,203.7769522
0.2650000,0.2650000,0.2650000,44.3443177,-0.0814408,3.2130851,44.3443177,28.2674427,182.4209976
0.2675000,0.2675000,0.2675000,39.9244234,-0.0786810,2.7811566,39.9244234,25.5526433,163.4569960
0.2700000,0.2700000,0.2700000,36.0075748,-0.0758945,2.3730076,36.0075748,23.1521483,146.5994790
0.2725000,0.2725000,0.2725000,32.5344377,-0.0730904,1.9883405,32.5344377,21.0275001,131.5986241
0.2750000,0.2750000,0.2750000,29.4527773,-0.0702819,1.6268466,29.4527773,19.1448817,118.2359270
0.2775000,0.2775000,0.2775000,26.7165402,-0.0674857,1.2879967,26.7165402,17.4745582,106.3204285
0.2800000,0.2800000,0.2800000,24.2850780,-0.0647203,0.9709582,24.2850780,15.9903843,95.6853451
0.2825000,0.2825000,0.2825000,22.1224881,-0.0620047,0.6745507,22.1224881,14.6693615,86.1850105
0.2850000,0.2850000,0.2850000,20.1970533,-0.0593567,0.3972092,20.1970533,13.4912368,77.6920849
0.2875000,0.2875000,0.2875000,18.4807552,-0.0567931,0.1369768,18.4807552,12.4381403,70.0950341
0.2900000,0.2900000,0.2900000,16.9488440,-0.0543295,-0.1084394,16.9488440,11.4942684,63.2958930
0.2925000,0.2925000,0.2925000,15.5794515,-0.0519835,-0.3415169,15.5794515,10.6456183,57.2083259
0.2950000,0.2950000,0.2950000,14.3532384,-0.0497772,-0.5646711,14.3532384,9.8797818,51.7559779
0.2975000,0.2975000,0.2975000,13.2530761,-0.0477408,-0.7799510,13.2530761,9.1857972,46.8710941
0.3000000,0.3000000,0.3000000,12.2637661,-0.0459156,-0.9887600,12.2637661,8.5540520,42.4933731
0.3025000,0.3025000,0.3025000,11.3718018,-0.0443550,-1.1916913,11.3718018,7.9762127,38.5690144
0.3050000,0.3050000,0.3050000,10.5651777,-0.0431226,-1.3885309,10.5651777,7.4451588,35.0499248
0.3075000,0.3075000,0.3075000,9.8332454,-0.0422875,-1.5784234,9.8332454,6.9548928,31.8930520
0.3100000,0.3100000,0.3100000,9.1666090,-0.0419159,-1.7601423,9.1666090,6.5004178,29.0598218
0.3125000,0.3125000,0.3125000,8.5570479,-0.0420626,-1.9323832,8.5570479,6.0775881,26.5156591
0.3150000,0.3150000,0.3150000,7.9974465,-0.0427615,-2.0940083,7.9974465,5.6829538,24.2295787
0.3175000,0.3175000,0.3175000,7.4817130,-0.0440200,-2.2442001,7.4817130,5.3136203,22.1738305
0.3200000,0.3200000,0.3200000,7.0046759,-0.0458155,-2.3825166,7.0046759,4.9671350,20.3235863
0.3225000,0.3225000,0.3225000,6.5619590,-0.0480954,-2.5088736,6.5619590,4.6414010,18.6566562
0.3250000,0.3250000,0.3250000,6.1498468,-0.0507801,-2.6234990,6.1498468,4.3346100,17.1532240
0.3275000,0.3275000,0.3275000,5.7651555,-0.0537662,-2.7269008,5.7651555,4.0451863,15.7955963
0.3300000,0.3300000,0.3300000,5.4051239,-0.0569330,-2.8198599,5.4051239,3.7717316,14.5679643
0.3325000,0.3325000,0.3325000,5.0673297,-0.0601492,-2.9034161,5.0673297,3.5129640,13.4561826
0.3350000,0.3350000,0.3350000,4.7496283,-0.0632822,-2.9788026,4.7496283,3.2676559,12.4475713
0.3375000,0.3375000,0.3375000,4.4501095,-0.0662093,-3.0473132,4.4501095,3.0345824,11.5307500
0.3400000,0.3400000,0.3400000,4.1670621,-0.0688280,-3.1101369,4.1670621,2.8125047,10.6955042
0.3425000,0.3425000,0.3425000,3.8989384,-0.0710670,-3.1682158,3.8989384,2.6002011,9.9326867
0.3450000,0.3450000,0.3450000,3.6443175,-0.0728924,-3.2221729,3.6443175,2.3965437,9.2341443
0.3475000,0.3475000,0.3475000,3.4018735,-0.0743115,-3.2723186,3.4018735,2.2005943,8.5926593
0.3500000,0.3500000,0.3500000,3.1703612,-0.0753696,-3.3187127,3.1703612,2.0116875,8.0018953
0.3525000,0.3525000,0.3525000,2.9486303,-0.0761419,-3.3612488,2.9486303,1.8294681,7.4563339
0.3550000,0.3550000,0.3550000,2.7356691,-0.0767211,-3.3997324,2.7356691,1.6538746,6.9511981
0.3575000,0.3575000,0.3575000,2.5306608,-0.0772024,-3.4339401,2.5306608,1.4850767,6.4823618
0.3600000,0.3600000,0.3600000,2.3330324,-0.0776708,-3.4636579,2.3330324,1.3233872,6.0462502
0.3625000,0.3625000,0.3625000,2.1424739,-0.0781904,-3.4887043,2.1424739,1.1691726,5.6397388
0.3650000,0.3650000,0.3650000,1.9589194,-0.0788000,-3.5089443,1.9589194,1.0227755,5.2600596
0.3675000,0.3675000,0.3675000,1.7824951,-0.0795120,-3.5242966,1.7824951,0.8844563,4.9047202
0.3700000,0.3700000,0.3700000,1.6134470,-0.0803164,-3.5347383,1.6134470,0.7543557,4.5714388
0.3725000,0.3725000,0.3725000,1.4520658,-0.0811857,-3.5403064,1.4520658,0.6324760,4.2580976
0.3750000,0.3750000,0.3750000,1.2986213,-0.0820813,-3.5410958,1.2986213,0.5186811,3.9627122
0.3775000,0.3775000,0.3775000,1.1533112,-0.0829595,-3.5372557,1.1533112,0.4127128,3.6834159
0.3800000,0.3800000,0.3800000,1.0162281,-0.0837765,-3.5289826,1.0162281,0.3142211,3.4184594
0.3825000,0.3825000,0.3825000,0.8873433,-0.0844922,-3.5165123,0.8873433,0.2228002,3.1662240
0.3850000,0.3850000,0.3850000,0.7665071,-0.0850725,-3.5001115,0.7665071,0.1380216,2.9252507
0.3875000,0.3875000,0.3875000,0.6534630,-0.0854910,-3.4800682,0.6534630,0.0594525,2.6942786
0.3900000,0.3900000,0.3900000,0.5478727,-0.0857284,-3.4566837,0.5478727,-0.0133464,2.4722860
0.3925000,0.3925000,0.3925000,0.4493446,-0.0857713,-3.4302646,0.4493446,-0.0808375,2.2585203
0.3950000,0.3950000,0.3950000,0.3574576,-0.0856099,-3.4011166,0.3574576,-0.1435226,2.0525075
0.3975000,0.3975000,0.3975000,0.2717713,-0.0852338,-3.3695388,0.2717713,-0.2019423,1.8540328
0.4000000,0.4000000,0.4000000,0.1918186,-0.0846271,-3.3358197,0.1918186,-0.2566489,1.6630967
0.4025000,0.4025000,0.4025000,0.1170891,-0.0837649,-3.3002340,0.1170891,-0.3081602,1.4798514
0.4050000,0.4050000,0.4050000,0.0470181,-0.0826110,-3.2630405,0.0470181,-0.3569108,1.3045313
0.4075000,0.4075000,0.4075000,-0.0190029,-0.0811222,-3.2244806,-0.0190029,-0.4032188,1.1373867
0.4100000,0.4100000,0.4100000,-0.0815894,-0.0792549,-3.1847781,-0.0815894,-0.4472774,0.9786281
0.4125000,0.4125000,0.4125000,-0.1413094,-0.0769752,-3.1441381,-0.1413094,-0.4891705,0.8283865
0.4150000,0.4150000,0.4150000,-0.1986288,-0.0742672,-3.1027484,-0.1986288,-0.5289017,0.6866905
0.4175000,0.4175000,0.4175000,-0.2538754,-0.0711375,-3.0607792,-0.2538754,-0.5664261,0.5534592
0.4200000,0.4200000,0.4200000,-0.3072311,-0.0676148,-3.0183843,-0.3072311,-0.6016745,0.4285080
0.4225000,0.4225000,0.4225000,-0.3587481,-0.0637458,-2.9757019,-0.3587481,-0.6345684,0.3115634
0.4250000,0.4250000,0.4250000,-0.4083812,-0.0595892,-2.9328557,-0.4083812,-0.6650256,0.2022801
0.4275000,0.4275000,0.4275000,-0.4560227,-0.0552099,-2.8899557,-0.4560227,-0.6929629,0.1002528
0.4300000,0.4300000,0.4300000,-0.5015301,-0.0506746,-2.8470995,-0.5015301,-0.7182980,0.0050209
0.4325000,0.4325000,0.4325000,-0.5447440,-0.0460495,-2.8043734,-0.5447440,-0.7409542,-0.0839343
0.4350000,0.4350000,0.4350000,-0.5854984,-0.0413989,-2.7618531,-0.5854984,-0.7608677,-0.1671919
0.4375000,0.4375000,0.4375000,-0.6236257,-0.0367842,-2.7196048,-0.6236257,-0.7779956,-0.2453840
0.4400000,0.4400000,0.4400000,-0.6589623,-0.0322629,-2.6776863,-0.6589623,-0.7923232,-0.3191716
0.4425000,0.4425000,0.4425000,-0.6913559,-0.0278873,-2.6361474,-0.6913559,-0.8038690,-0.3892038
0.4450000,0.4450000,0.4450000,-0.7206747,-0.0237030,-2.5950312,-0.7206747,-0.8126866,-0.4560708
0.4475000,0.4475000,0.4475000,-0.7468171,-0.0197476,-2.5543742,-0.7468171,-0.8188635,-0.5202604
0.4500000,0.4500000,0.4500000,-0.7697193,-0.0160497,-2.5142075,-0.7697193,-0.8225181,-0.5821311
0.4525000,0.4525000,0.4525000,-0.7893615,-0.0126292,-2.4745573,-0.7893615,-0.8237939,-0.6419053
0.4550000,0.4550000,0.4550000,-0.8057692,-0.0094970,-2.4354450,-0.8057692,-0.8228540,-0.6996814
0.4575000,0.4575000,0.4575000,-0.8190119,-0.0066562,-2.3968884,-0.8190119,-0.8198746,-0.7554569
0.4600000,0.4600000,0.4600000,-0.8291991,-0.0041033,-2.3589015,-0.8291991,-0.8150393,-0.8091551
0.4625000,0.4625000,0.4625000,-0.8364741,-0.0018291,-2.3214952,-0.8364741,-0.8085339,-0.8606487
0.4650000,0.4650000,0.4650000,-0.8410069,0.0001794,-2.2846778,-0.8410069,-0.8005419,-0.9097771
0.4675000,0.4675000,0.4675000,-0.8429865,0.0019384,-2.2484549,-0.8429865,-0.7912415,-0.9563596
0.4700000,0.4700000,0.4700000,-0.8426147,0.0034656,-2.2128302,-0.8426147,-0.7808025,-1.0002042
0.4725000,0.4725000,0.4725000,-0.8400990,0.0047799,-2.1778052,-0.8400990,-0.7693852,-1.0411170
0.4750000,0.4750000,0.4750000,-0.8356477,0.0059004,-2.1433801,-0.8356477,-0.7571383,-1.0789110
0.4775000,0.4775000,0.4775000,-0.8294654,0.0068457,-2.1095534,-0.8294654,-0.7441992,-1.1134168
0.4800000,0.4800000,0.4800000,-0.8217497,0.0076339,-2.0763224,-0.8217497,-0.7306933,-1.1444918
0.4825000,0.4825000,0.4825000,-0.8126887,0.0082820,-2.0436834,-0.8126887,-0.7167341,-1.1720294
0.4850000,0.4850000,0.4850000,-0.8024592,0.0088060,-2.0116314,-0.8024592,-0.7024242,-1.1959651
0.4875000,0.4875000,0.4875000,-0.7912258,0.0092205,-1.9801611,-0.7912258,-0.6878549,-1.2162797
0.4900000,0.4900000,0.4900000,-0.7791403,0.0095391,-1.9492660,-0.7791403,-0.6731077,-1.2330001
0.4925000,0.4925000,0.4925000,-0.7663417,0.0097739,-1.9189394,-0.7663417,-0.6582545,-1.2461969
0.4950000,0.4950000,0.4950000,-0.7529562,0.0099358,-1.8891739,-0.7529562,-0.6433585,-1.2559798
0.4975000,0.4975000,0.4975000,-0.7390981,0.0100349,-1.8599617,-0.7390981,-0.6284751,-1.2624924
0.5000000,0.5000000,0.5000000,-0.7248697,0.0100798,-1.8312946,-0.7248697,-0.6136523,-1.2659052
0.5025000,0.5025000,0.5025000,-0.7103625,0.0100783,-1.8031642,-0.7103625,-0.5989317,-1.2664091
0.5050000,0.5050000,0.5050000,-0.6956580,0.0100375,-1.7755618,-0.6956580,-0.5843489,-1.2642092
0.5075000,0.5075000,0.5075000,-0.6808281,0.0099634,-1.7484788,-0.6808281,-0.5699344,-1.2595185
0.5100000,0.5100000,0.5100000,-0.6659363,0.0098614,-1.7219060,-0.6659363,-0.5557139,-1.2525535
0.5125000,0.5125000,0.5125000,-0.6510381,0.0097361,-1.6958344,-0.6510381,-0.5417088,-1.2435293
0.5150000,0.5150000,0.5150000,-0.6361820,0.0095916,-1.6702549,-0.6361820,-0.5279371,-1.2326561
0.5175000,0.5175000,0.5175000,-0.6214099,0.0094317,-1.6451585,-0.6214099,-0.5144133,-1.2201372
0.5200000,0.5200000,0.5200000,-0.6067583,0.0092593,-1.6205359,-0.6067583,-0.5011490,-1.2061661
0.5225000,0.5225000,0.5225000,-0.5922580,0.0090771,-1.5963782,-0.5922580,-0.4881534,-1.1909259
0.5250000,0.5250000,0.5250000,-0.5779357,0.0088875,-1.5726761,-0.5779357,-0.4754334,-1.1745876
0.5275000,0.5275000,0.5275000,-0.5638135,0.0086925,-1.5494207,-0.5638135,-0.4629939,-1.1573104
0.5300000,0.5300000,0.5300000,-0.5499102,0.0084938,-1.5266031,-0.5499102,-0.4508382,-1.1392411
0.5325000,0.5325000,0.5325000,-0.5362413,0.0082929,-1.5042145,-0.5362413,-0.4389681,-1.1205144
0.5350000,0.5350000,0.5350000,-0.5228192,0.0080911,-1.4822461,-0.5228192,-0.4273842,-1.1012532
0.5375000,0.5375000,0.5375000,-0.5096540,0.0078894,-1.4606893,-0.5096540,-0.4160857,-1.0815689
0.5400000,0.5400000,0.5400000,-0.4967534,0.0076886,-1.4395357,-0.4967534,-0.4050713,-1.0615624
0.5425000,0.5425000,0.5425000,-0.4841233,0.0074896,-1.4187768,-0.4841233,-0.3943386,-1.0413243
0.5450000,0.5450000,0.5450000,-0.4717678,0.0072930,-1.3984044,-0.4717678,-0.3838845,-1.0209356
0.5475000,0.5475000,0.5475000,-0.4596895,0.0070993,-1.3784103,-0.4596895,-0.3737055,-1.0004687
0.5500000,0.5500000,0.5500000,-0.4478898,0.0069090,-1.3587868,-0.4478898,-0.3637976,-0.9799880
0.5525000,0.5525000,0.5525000,-0.4363688,0.0067223,-1.3395258,-0.4363688,-0.3541561,-0.9595500
0.5550000,0.5550000,0.5550000,-0.4251257,0.0065395,-1.3206198,-0.4251257,-0.3447764,-0.9392049
0.5575000,0.5575000,0.5575000,-0.4141590,0.0063609,-1.3020612,-0.4141590,-0.3356533,-0.9189964
0.5600000,0.5600000,0.5600000,-0.4034662,0.0061865,-1.2838426,-0.4034662,-0.3267816,-0.8989627
0.5625000,0.5625000,0.5625000,-0.3930445,0.0060166,-1.2659568,-0.3930445,-0.3181559,-0.8791366
0.5650000,0.5650000,0.5650000,-0.3828903,0.0058511,-1.2483967,-0.3828903,-0.3097705,-0.8595468
0.5675000,0.5675000,0.5675000,-0.3729997,0.0056902,-1.2311553,-0.3729997,-0.3016200,-0.8402173
0.5700000,0.5700000,0.5700000,-0.3633685,0.0055338,-1.2142259,-0.3633685,-0.2936985,-0.8211689
0.5725000,0.5725000,0.5725000,-0.3539920,0.0053819,-1.1976017,-0.3539920,-0.2860005,-0.8024186
0.5750000,0.5750000,0.5750000,-0.3448655,0.0052344,-1.1812764,-0.3448655,-0.2785201,-0.7839807
0.5775000,0.5775000,0.5775000,-0.3359840,0.0050914,-1.1652435,-0.3359840,-0.2712519,-0.7658667
0.5800000,0.5800000,0.5800000,-0.3273423,0.0049528,-1.1494967,-0.3273423,-0.2641900,-0.7480859
0.5825000,0.5825000,0.5825000,-0.3189351,0.0048184,-1.1340301,-0.3189351,-0.2573290,-0.7306452
0.5850000,0.5850000,0.5850000,-0.3107572,0.0046883,-1.1188376,-0.3107572,-0.2506633,-0.7135500
0.5875000,0.5875000,0.5875000,-0.3028030,0.0045623,-1.1039134,-0.3028030,-0.2441875,-0.6968037
0.5900000,0.5900000,0.5900000,-0.2950674,0.0044402,-1.0892518,-0.2950674,-0.2378964,-0.6804084
0.5925000,0.5925000,0.5925000,-0.2875447,0.0043222,-1.0748473,-0.2875447,-0.2317846,-0.6643651
0.5950000,0.5950000,0.5950000,-0.2802297,0.0042079,-1.0606945,-0.2802297,-0.2258470,-0.6486733
0.5975000,0.5975000,0.5975000,-0.2731170,0.0040973,-1.0467880,-0.2731170,-0.2200787,-0.6333318
0.6000000,0.6000000,0.6000000,-0.2662014,0.0039903,-1.0331226,-0.2662014,-0.2144746,-0.6183384
0.6025000,0.6025000,0.6025000,-0.2594775,0.0038869,-1.0196933,-0.2594775,-0.2090300,-0.6036904
0.6050000,0.6050000,0.6050000,-0.2529402,0.0037868,-1.0064951,-0.2529402,-0.2037402,-0.5893841
0.6075000,0.6075000,0.6075000,-0.2465844,0.0036900,-0.9935232,-0.2465844,-0.1986006,-0.5754156
0.6100000,0.6100000,0.6100000,-0.2404052,0.0035964,-0.9807729,-0.2404052,-0.1936067,-0.5617802
0.6125000,0.6125000,0.6125000,-0.2343976,0.0035058,-0.9682396,-0.2343976,-0.1887543,-0.5484732
0.6150000,0.6150000,0.6150000,-0.2285569,0.0034182,-0.9559187,-0.2285569,-0.1840391,-0.5354892
0.6175000,0.6175000,0.6175000,-0.2228782,0.0033335,-0.9438059,-0.2228782,-0.1794569,-0.5228227
0.6200000,0.6200000,0.6200000,-0.2173571,0.0032516,-0.9318969,-0.2173571,-0.1750039,-0.5104681
0.6225000,0.6225000,0.6225000,-0.2119889,0.0031723,-0.9201874,-0.2119889,-0.1706760,-0.4984193
0.6250000,0.6250000,0.6250000,-0.2067694,0.0030957,-0.9086734,-0.2067694,-0.1664695,-0.4866704
0.6275000,0.6275000,0.6275000,-0.2016942,0.0030215,-0.8973509,-0.2016942,-0.1623809,-0.4752153
0.6300000,0.6300000,0.6300000,-0.1967592,0.0029497,-0.8862159,-0.1967592,-0.1584064,-0.4640476
0.6325000,0.6325000,0.6325000,-0.1919602,0.0028803,-0.8752647,-0.1919602,-0.1545427,-0.4531612
0.6350000,0.6350000,0.6350000,-0.1872933,0.0028130,-0.8644934,-0.1872933,-0.1507864,-0.4425497
0.6375000,0.6375000,0.6375000,-0.1827547,0.0027480,-0.8538986,-0.1827547,-0.1471343,-0.4322070
0.6400000,0.6400000,0.6400000,-0.1783406,0.0026850,-0.8434766,-0.1783406,-0.1435831,-0.4221267
0.6425000,0.6425000,0.6425000,-0.1740474,0.0026240,-0.8332239,-0.1740474,-0.1401300,-0.4123027
0.6450000,0.6450000,0.6450000,-0.1698714,0.0025650,-0.8231371,-0.1698714,-0.1367718,-0.4027288
0.6475000,0.6475000,0.6475000,-0.1658093,0.0025078,-0.8132130,-0.1658093,-0.1335058,-0.3933989
0.6500000,0.6500000,0.6500000,-0.1618577,0.0024524,-0.8034483,-0.1618577,-0.1303292,-0.3843069
0.6525000,0.6525000,0.6525000,-0.1580134,0.0023987,-0.7938398,-0.1580134,-0.1272393,-0.3754470
0.6550000,0.6550000,0.6550000,-0.1542731,0.0023467,-0.7843845,-0.1542731,-0.1242334,-0.3668133
0.6575000,0.6575000,0.6575000,-0.1506339,0.0022963,-0.7750793,-0.1506339,-0.1213090,-0.3584001
0.6600000,0.6600000,0.6600000,-0.1470928,0.0022475,-0.7659212,-0.1470928,-0.1184637,-0.3502016
0.6625000,0.6625000,0.6625000,-0.1436468,0.0022001,-0.7569075,-0.1436468,-0.1156952,-0.3422123
0.6650000,0.6650000,0.6650000,-0.1402932,0.0021542,-0.7480352,-0.1402932,-0.1130011,-0.3344269
0.6675000,0.6675000,0.6675000,-0.1370293,0.0021097,-0.7393016,-0.1370293,-0.1103792,-0.3268399
0.6700000,0.6700000,0.6700000,-0.1338524,0.0020665,-0.7307041,-0.1338524,-0.1078274,-0.3194461
0.6725000,0.6725000,0.6725000,-0.1307599,0.0020246,-0.7222400,-0.1307599,-0.1053435,-0.3122405
0.6750000,0.6750000,0.6750000,-0.1277495,0.0019839,-0.7139067,-0.1277495,-0.1029257,-0.3052180
0.6775000,0.6775000,0.6775000,-0.1248186,0.0019444,-0.7057017,-0.1248186,-0.1005718,-0.2983738
0.6800000,0.6800000,0.6800000,-0.1219651,0.0019061,-0.6976226,-0.1219651,-0.0982800,-0.2917031
0.6825000,0.6825000,0.6825000,-0.1191865,0.0018689,-0.6896670,-0.1191865,-0.0960485,-0.2852012
0.6850000,0.6850000,0.6850000,-0.1164808,0.0018328,-0.6818325,-0.1164808,-0.0938755,-0.2788637
0.6875000,0.6875000,0.6875000,-0.1138458,0.0017977,-0.6741168,-0.1138458,-0.0917593,-0.2726861
0.6900000,0.6900000,0.6900000,-0.1112795,0.0017636,-0.6665177,-0.1112795,-0.0896982,-0.2666640
0.6925000,0.6925000,0.6925000,-0.1087798,0.0017305,-0.6590330,-0.1087798,-0.0876907,-0.2607934
0.6950000,0.6950000,0.6950000,-0.1063449,0.0016982,-0.6516606,-0.1063449,-0.0857351,-0.2550700
0.6975000,0.6975000,0.6975000,-0.1039728,0.0016669,-0.6443983,-0.1039728,-0.0838300,-0.2494900
0.7000000,0.7000000,0.7000000,-0.1016618,0.0016365,-0.6372442,-0.1016618,-0.0819738,-0.2440494
0.7025000,0.7025000,0.7025000,-0.0994101,0.0016069,-0.6301961,-0.0994101,-0.0801653,-0.2387445
0.7050000,0.7050000,0.7050000,-0.0972160,0.0015781,-0.6232522,-0.0972160,-0.0784029,-0.2335716
0.7075000,0.7075000,0.7075000,-0.0950779,0.0015501,-0.6164105,-0.0950779,-0.0766854,-0.2285271
0.7100000,0.7100000,0.7100000,-0.0929941,0.0015228,-0.6096692,-0.0929941,-0.0750114,-0.2236075
0.7125000,0.7125000,0.7125000,-0.0909632,0.0014962,-0.6030264,-0.0909632,-0.0733799,-0.2188095
0.7150000,0.7150000,0.7150000,-0.0889835,0.0014704,-0.5964803,-0.0889835,-0.0717894,-0.2141297
0.7175000,0.7175000,0.7175000,-0.0870537,0.0014452,-0.5900292,-0.0870537,-0.0702389,-0.2095650
0.7200000,0.7200000,0.7200000,-0.0851724,0.0014207,-0.5836714,-0.0851724,-0.0687272,-0.2051123
0.7225000,0.7225000,0.7225000,-0.0833381,0.0013969,-0.5774051,-0.0833381,-0.0672533,-0.2007685
0.7250000,0.7250000,0.7250000,-0.0815496,0.0013736,-0.5712287,-0.0815496,-0.0658160,-0.1965307
0.7275000,0.7275000,0.7275000,-0.0798056,0.0013509,-0.5651406,-0.0798056,-0.0644144,-0.1923960
0.7300000,0.7300000,0.7300000,-0.0781048,0.0013289,-0.5591393,-0.0781048,-0.0630474,-0.1883617
0.7325000,0.7325000,0.7325000,-0.0764460,0.0013073,-0.5532232,-0.0764460,-0.0617141,-0.1844251
0.7350000,0.7350000,0.7350000,-0.0748281,0.0012863,-0.5473907,-0.0748281,-0.0604135,-0.1805835
0.7375000,0.7375000,0.7375000,-0.0732498,0.0012658,-0.5416405,-0.0732498,-0.0591447,-0.1768344
0.7400000,0.7400000,0.7400000,-0.0717102,0.0012459,-0.5359710,-0.0717102,-0.0579069,-0.1731753
0.7425000,0.7425000,0.7425000,-0.0702082,0.0012264,-0.5303808,-0.0702082,-0.0566991,-0.1696038
0.7450000,0.7450000,0.7450000,-0.0687426,0.0012073,-0.5248687,-0.0687426,-0.0555206,-0.1661176
0.7475000,0.7475000,0.7475000,-0.0673126,0.0011888,-0.5194331,-0.0673126,-0.0543706,-0.1627144
0.7500000,0.7500000,0.7500000,-0.0659171,0.0011707,-0.5140727,-0.0659171,-0.0532482,-0.1593920
0.7525000,0.7525000,0.7525000,-0.0645552,0.0011530,-0.5087864,-0.0645552,-0.0521527,-0.1561483
0.7550000,0.7550000,0.7550000,-0.0632260,0.0011357,-0.5035727,-0.0632260,-0.0510835,-0.1529811
0.7575000,0.7575000,0.7575000,-0.0619286,0.0011188,-0.4984305,-0.0619286,-0.0500397,-0.1498885
0.7600000,0.7600000,0.7600000,-0.0606621,0.0011023,-0.4933585,-0.0606621,-0.0490207,-0.1468685
0.7625000,0.7625000,0.7625000,-0.0594257,0.0010862,-0.4883555,-0.0594257,-0.0480258,-0.1439192
0.7650000,0.7650000,0.7650000,-0.0582187,0.0010704,-0.4834203,-0.0582187,-0.0470544,-0.1410386
0.7675000,0.7675000,0.7675000,-0.0570401,0.0010550,-0.4785519,-0.0570401,-0.0461058,-0.1382251
0.7700000,0.7700000,0.7700000,-0.0558893,0.0010400,-0.4737490,-0.0558893,-0.0451795,-0.1354769
0.7725000,0.7725000,0.7725000,-0.0547654,0.0010253,-0.4690106,-0.0547654,-0.0442748,-0.1327922
0.7750000,0.7750000,0.7750000,-0.0536679,0.0010109,-0.4643355,-0.0536679,-0.0433911,-0.1301694
0.7775000,0.7775000,0.7775000,-0.0525959,0.0009968,-0.4597228,-0.0525959,-0.0425280,-0.1276070
0.7800000,0.7800000,0.7800000,-0.0515488,0.0009830,-0.4551714,-0.0515488,-0.0416848,-0.1251032
0.7825000,0.7825000,0.7825000,-0.0505260,0.0009696,-0.4506802,-0.0505260,-0.0408611,-0.1226567
0.7850000,0.7850000,0.7850000,-0.0495269,0.0009564,-0.4462483,-0.0495269,-0.0400563,-0.1202660
0.7875000,0.7875000,0.7875000,-0.0485507,0.0009435,-0.4418747,-0.0485507,-0.0392700,-0.1179295
0.7900000,0.7900000,0.7900000,-0.0475969,0.0009308,-0.4375584,-0.0475969,-0.0385016,-0.1156460
0.7925000,0.7925000,0.7925000,-0.0466649,0.0009184,-0.4332985,-0.0466649,-0.0377507,-0.1134140
0.7950000,0.7950000,0.7950000,-0.0457541,0.0009063,-0.4290940,-0.0457541,-0.0370168,-0.1112323
0.7975000,0.7975000,0.7975000,-0.0448641,0.0008945,-0.4249441,-0.0448641,-0.0362995,-0.1090996
0.8000000,0.8000000,0.8000000,-0.0439942,0.0008828,-0.4208479,-0.0439942,-0.0355984,-0.1070146
0.8025000,0.8025000,0.8025000,-0.0431440,0.0008714,-0.4168045,-0.0431440,-0.0349131,-0.1049761
0.8050000,0.8050000,0.8050000,-0.0423129,0.0008603,-0.4128131,-0.0423129,-0.0342431,-0.1029830
0.8075000,0.8075000,0.8075000,-0.0415004,0.0008493,-0.4088728,-0.0415004,-0.0335880,-0.1010340
0.8100000,0.8100000,0.8100000,-0.0407061,0.0008386,-0.4049827,-0.0407061,-0.0329476,-0.0991282
0.8125000,0.8125000,0.8125000,-0.0399296,0.0008281,-0.4011422,-0.0399296,-0.0323213,-0.0972644
0.8150000,0.8150000,0.8150000,-0.0391702,0.0008178,-0.3973504,-0.0391702,-0.0317089,-0.0954415
0.8175000,0.8175000,0.8175000,-0.0384278,0.0008077,-0.3936065,-0.0384278,-0.0311100,-0.0936586
0.8200000,0.8200000,0.8200000,-0.0377017,0.0007978,-0.3899098,-0.0377017,-0.0305243,-0.0919146
0.8225000,0.8225000,0.8225000,-0.0369916,0.0007880,-0.3862596,-0.0369916,-0.0299514,-0.0902086
0.8250000,0.8250000,0.8250000,-0.0362970,0.0007785,-0.3826550,-0.0362970,-0.0293910,-0.0885396
0.8275000,0.8275000,0.8275000,-0.0356177,0.0007691,-0.3790954,-0.0356177,-0.0288428,-0.0869068
0.8300000,0.8300000,0.8300000,-0.0349532,0.0007599,-0.3755801,-0.0349532,-0.0283065,-0.0853092
0.8325000,0.8325000,0.8325000,-0.0343032,0.0007509,-0.3721084,-0.0343032,-0.0277818,-0.0837460
0.8350000,0.8350000,0.8350000,-0.0336672,0.0007421,-0.3686796,-0.0336672,-0.0272684,-0.0822163
0.8375000,0.8375000,0.8375000,-0.0330450,0.0007334,-0.3652931,-0.0330450,-0.0267660,-0.0807194
0.8400000,0.8400000,0.8400000,-0.0324362,0.0007248,-0.3619481,-0.0324362,-0.0262745,-0.0792543
0.8425000,0.8425000,0.8425000,-0.0318405,0.0007164,-0.3586442,-0.0318405,-0.0257934,-0.0778204
0.8450000,0.8450000,0.8450000,-0.0312575,0.0007082,-0.3553805,-0.0312575,-0.0253226,-0.0764169
0.8475000,0.8475000,0.8475000,-0.0306870,0.0007001,-0.3521566,-0.0306870,-0.0248618,-0.0750431
0.8500000,0.8500000,0.8500000,-0.0301286,0.0006922,-0.3489718,-0.0301286,-0.0244107,-0.0736982
0.8525000,0.8525000,0.8525000,-0.0295820,0.0006844,-0.3458255,-0.0295820,-0.0239692,-0.0723816
0.8550000,0.8550000,0.8550000,-0.0290471,0.0006767,-0.3427171,-0.0290471,-0.0235369,-0.0710925
0.8575000,0.8575000,0.8575000,-0.0285234,0.0006692,-0.3396461,-0.0285234,-0.0231137,-0.0698304
0.8600000,0.8600000,0.8600000,-0.0280107,0.0006618,-0.3366119,-0.0280107,-0.0226994,-0.0685945
0.8625000,0.8625000,0.8625000,-0.0275088,0.0006545,-0.3336140,-0.0275088,-0.0222937,-0.0673843
0.8650000,0.8650000,0.8650000,-0.0270173,0.0006473,-0.3306517,-0.0270173,-0.0218965,-0.0661991
0.8675000,0.8675000,0.8675000,-0.0265361,0.0006403,-0.3277246,-0.0265361,-0.0215075,-0.0650384
0.8700000,0.8700000,0.8700000,-0.0260649,0.0006334,-0.3248322,-0.0260649,-0.0211265,-0.0639016
0.8725000,0.8725000,0.8725000,-0.0256035,0.0006266,-0.3219739,-0.0256035,-0.0207534,-0.0627881
0.8750000,0.8750000,0.8750000,-0.0251516,0.0006199,-0.3191493,-0.0251516,-0.0203879,-0.0616973
0.8775000,0.8775000,0.8775000,-0.0247089,0.0006133,-0.3163577,-0.0247089,-0.0200299,-0.0606289
0.8800000,0.8800000,0.8800000,-0.0242754,0.0006068,-0.3135989,-0.0242754,-0.0196793,-0.0595821
0.8825000,0.8825000,0.8825000,-0.0238508,0.0006004,-0.3108721,-0.0238508,-0.0193357,-0.0585565
0.8850000,0.8850000,0.8850000,-0.0234348,0.0005941,-0.3081771,-0.0234348,-0.0189992,-0.0575517
0.8875000,0.8875000,0.8875000,-0.0230273,0.0005880,-0.3055134,-0.0230273,-0.0186695,-0.0565671
0.8900000,0.8900000,0.8900000,-0.0226280,0.0005819,-0.3028804,-0.0226280,-0.0183464,-0.0556024
0.8925000,0.8925000,0.8925000,-0.0222369,0.0005759,-0.3002777,-0.0222369,-0.0180298,-0.0546569
0.8950000,0.8950000,0.8950000,-0.0218536,0.0005700,-0.2977050,-0.0218536,-0.0177196,-0.0537304
0.8975000,0.8975000,0.8975000,-0.0214780,0.0005642,-0.2951617,-0.0214780,-0.0174156,-0.0528222
0.9000000,0.9000000,0.9000000,-0.0211100,0.0005585,-0.2926475,-0.0211100,-0.0171176,-0.0519322
0.9025000,0.9025000,0.9025000,-0.0207493,0.0005529,-0.2901619,-0.0207493,-0.0168256,-0.0510597
0.9050000,0.9050000,0.9050000,-0.0203958,0.0005474,-0.2877045,-0.0203958,-0.0165394,-0.0502045
0.9075000,0.9075000,0.9075000,-0.0200493,0.0005419,-0.2852750,-0.0200493,-0.0162588,-0.0493661
0.9100000,0.9100000,0.9100000,-0.0197097,0.0005365,-0.2828729,-0.0197097,-0.0159838,-0.0485442
0.9125000,0.9125000,0.9125000,-0.0193769,0.0005313,-0.2804978,-0.0193769,-0.0157141,-0.0477384
0.9150000,0.9150000,0.9150000,-0.0190505,0.0005260,-0.2781494,-0.0190505,-0.0154498,-0.0469483
0.9175000,0.9175000,0.9175000,-0.0187306,0.0005209,-0.2758273,-0.0187306,-0.0151906,-0.0461736
0.9200000,0.9200000,0.9200000,-0.0184170,0.0005159,-0.2735311,-0.0184170,-0.0149365,-0.0454139
0.9225000,0.9225000,0.9225000,-0.0181095,0.0005109,-0.2712604,-0.0181095,-0.0146873,-0.0446690
0.9250000,0.9250000,0.9250000,-0.0178080,0.0005060,-0.2690150,-0.0178080,-0.0144430,-0.0439384
0.9275000,0.9275000,0.9275000,-0.0175123,0.0005011,-0.2667943,-0.0175123,-0.0142034,-0.0432218
0.9300000,0.9300000,0.9300000,-0.0172224,0.0004963,-0.2645982,-0.0172224,-0.0139684,-0.0425190
0.9325000,0.9325000,0.9325000,-0.0169381,0.0004916,-0.2624263,-0.0169381,-0.0137379,-0.0418297
0.9350000,0.9350000,0.9350000,-0.0166592,0.0004870,-0.2602782,-0.0166592,-0.0135118,-0.0411535
0.9375000,0.9375000,0.9375000,-0.0163857,0.0004824,-0.2581536,-0.0163857,-0.0132901,-0.0404902
0.9400000,0.9400000,0.9400000,-0.0161175,0.0004779,-0.2560522,-0.0161175,-0.0130726,-0.0398395
0.9425000,0.9425000,0.9425000,-0.0158544,0.0004735,-0.2539736,-0.0158544,-0.0128592,-0.0392010
0.9450000,0.9450000,0.9450000,-0.0155963,0.0004691,-0.2519176,-0.0155963,-0.0126499,-0.0385747
0.9475000,0.9475000,0.9475000,-0.0153431,0.0004648,-0.2498839,-0.0153431,-0.0124445,-0.0379601
0.9500000,0.9500000,0.9500000,-0.0150946,0.0004605,-0.2478720,-0.0150946,-0.0122430,-0.0373570
0.9525000,0.9525000,0.9525000,-0.0148509,0.0004563,-0.2458819,-0.0148509,-0.0120453,-0.0367653
0.9550000,0.9550000,0.9550000,-0.0146118,0.0004522,-0.2439131,-0.0146118,-0.0118513,-0.0361845
0.9575000,0.9575000,0.9575000,-0.0143772,0.0004481,-0.2419654,-0.0143772,-0.0116609,-0.0356146
0.9600000,0.9600000,0.9600000,-0.0141470,0.0004440,-0.2400384,-0.0141470,-0.0114741,-0.0350552
0.9625000,0.9625000,0.9625000,-0.0139211,0.0004400,-0.2381320,-0.0139211,-0.0112908,-0.0345062
0.9650000,0.9650000,0.9650000,-0.0136993,0.0004361,-0.2362458,-0.0136993,-0.0111108,-0.0339674
0.9675000,0.9675000,0.9675000,-0.0134818,0.0004322,-0.2343796,-0.0134818,-0.0109342,-0.0334384
0.9700000,0.9700000,0.9700000,-0.0132682,0.0004284,-0.2325330,-0.0132682,-0.0107608,-0.0329192
0.9725000,0.9725000,0.9725000,-0.0130586,0.0004246,-0.2307059,-0.0130586,-0.0105907,-0.0324094
0.9750000,0.9750000,0.9750000,-0.0128529,0.0004209,-0.2288981,-0.0128529,-0.0104236,-0.0319090
0.9775000,0.9775000,0.9775000,-0.0126509,0.0004172,-0.2271091,-0.0126509,-0.0102597,-0.0314177
0.9800000,0.9800000,0.9800000,-0.0124527,0.0004136,-0.2253388,-0.0124527,-0.0100987,-0.0309353
0.9825000,0.9825000,0.9825000,-0.0122580,0.0004100,-0.2235870,-0.0122580,-0.0099406,-0.0304616
0.9850000,0.9850000,0.9850000,-0.0120670,0.0004064,-0.2218533,-0.0120670,-0.0097854,-0.0299965
0.9875000,0.9875000,0.9875000,-0.0118794,0.0004029,-0.2201377,-0.0118794,-0.0096331,-0.0295397
0.9900000,0.9900000,0.9900000,-0.0116952,0.0003995,-0.2184397,-0.0116952,-0.0094834,-0.0290912
0.9925000,0.9925000,0.9925000,-0.0115143,0.0003961,-0.2167593,-0.0115143,-0.0093365,-0.0286507
0.9950000,0.9950000,0.9950000,-0.0113367,0.0003927,-0.2150961,-0.0113367,-0.0091922,-0.0282180
0.9975000,0.9975000,0.9975000,-0.0111623,0.0003894,-0.2134500,-0.0111623,-0.0090505,-0.0277931
1.0000000,1.0000000,1.0000000,-0.0109911,0.0003861,-0.2118207,-0.0109911,-0.0089114,-0.0273757
1.0025000,1.0025000,1.0025000,-0.0108229,0.0003828,-0.2102081,-0.0108229,-0.0087747,-0.0269657
1.0050000,1.0050000,1.0050000,-0.0106577,0.0003796,-0.2086118,-0.0106577,-0.0086404,-0.0265630
1.0075000,1.0075000,1.0075000,-0.0104954,0.0003765,-0.2070318,-0.0104954,-0.0085086,-0.0261673
1.0100000,1.0100000,1.0100000,-0.0103361,0.0003733,-0.2054677,-0.0103361,-0.0083790,-0.0257786
1.0125000,1.0125000,1.0125000,-0.0101795,0.0003703,-0.2039194,-0.0101795,-0.0082518,-0.0253967
1.0150000,1.0150000,1.0150000,-0.0100258,0.0003672,-0.2023867,-0.0100258,-0.0081268,-0.0250215
1.0175000,1.0175000,1.0175000,-0.0098747,0.0003642,-0.2008694,-0.0098747,-0.0080039,-0.0246529
1.0200000,1.0200000,1.0200000,-0.0097263,0.0003612,-0.1993674,-0.0097263,-0.0078833,-0.0242906
1.0225000,1.0225000,1.0225000,-0.0095805,0.0003583,-0.1978803,-0.0095805,-0.0077647,-0.0239347
1.0250000,1.0250000,1.0250000,-0.0094373,0.0003553,-0.1964080,-0.0094373,-0.0076482,-0.0235849
1.0275000,1.0275000,1.0275000,-0.0092965,0.0003525,-0.1949504,-0.0092965,-0.0075338,-0.0232411
1.0300000,1.0300000,1.0300000,-0.0091582,0.0003496,-0.1935072,-0.0091582,-0.0074213,-0.0229033
1.0325000,1.0325000,1.0325000,-0.0090223,0.0003468,-0.1920783,-0.0090223,-0.0073108,-0.0225712
1.0350000,1.0350000,1.0350000,-0.0088888,0.0003440,-0.1906635,-0.0088888,-0.0072021,-0.0222448
1.0375000,1.0375000,1.0375000,-0.0087575,0.0003413,-0.1892626,-0.0087575,-0.0070954,-0.0219241
1.0400000,1.0400000,1.0400000,-0.0086286,0.0003386,-0.1878755,-0.0086286,-0.0069905,-0.0216087
1.0425000,1.0425000,1.0425000,-0.0085018,0.0003359,-0.1865019,-0.0085018,-0.0068873,-0.0212988
1.0450000,1.0450000,1.0450000,-0.0083772,0.0003332,-0.1851418,-0.0083772,-0.0067860,-0.0209941
1.0475000,1.0475000,1.0475000,-0.0082548,0.0003306,-0.1837949,-0.0082548,-0.0066863,-0.0206945
1.0500000,1.0500000,1.0500000,-0.0081344,0.0003280,-0.1824611,-0.0081344,-0.0065884,-0.0204000
1.0525000,1.0525000,1.0525000,-0.0080161,0.0003255,-0.1811402,-0.0080161,-0.0064921,-0.0201104
1.0550000,1.0550000,1.0550000,-0.0078998,0.0003229,-0.1798321,-0.0078998,-0.0063975,-0.0198257
1.0575000,1.0575000,1.0575000,-0.0077855,0.0003204,-0.1785367,-0.0077855,-0.0063044,-0.0195458
1.0600000,1.0600000,1.0600000,-0.0076731,0.0003179,-0.1772537,-0.0076731,-0.0062129,-0.0192705
1.0625000,1.0625000,1.0625000,-0.0075626,0.0003155,-0.1759830,-0.0075626,-0.0061230,-0.0189999
1.0650000,1.0650000,1.0650000,-0.0074540,0.0003131,-0.1747245,-0.0074540,-0.0060345,-0.0187337
1.0675000,1.0675000,1.0675000,-0.0073471,0.0003107,-0.1734780,-0.0073471,-0.0059476,-0.0184719
1.0700000,1.0700000,1.0700000,-0.0072421,0.0003083,-0.1722434,-0.0072421,-0.0058620,-0.0182145
1.0725000,1.0725000,1.0725000,-0.0071388,0.0003059,-0.1710205,-0.0071388,-0.0057779,-0.0179613
1.0750000,1.0750000,1.0750000,-0.0070372,0.0003036,-0.1698092,-0.0070372,-0.0056952,-0.0177122
1.0775000,1.0775000,1.0775000,-0.0069374,0.0003013,-0.1686094,-0.0069374,-0.0056139,-0.0174673
1.0800000,1.0800000,1.0800000,-0.0068392,0.0002991,-0.1674209,-0.0068392,-0.0055339,-0.0172263
1.0825000,1.0825000,1.0825000,-0.0067426,0.0002968,-0.1662436,-0.0067426,-0.0054553,-0.0169893
1.0850000,1.0850000,1.0850000,-0.0066475,0.0002946,-0.1650773,-0.0066475,-0.0053779,-0.0167561
1.0875000,1.0875000,1.0875000,-0.0065541,0.0002924,-0.1639220,-0.0065541,-0.0053018,-0.0165268
1.0900000,1.0900000,1.0900000,-0.0064622,0.0002902,-0.1627775,-0.0064622,-0.0052269,-0.0163011
1.0925000,1.0925000,1.0925000,-0.0063718,0.0002881,-0.1616436,-0.0063718,-0.0051533,-0.0160791
1.0950000,1.0950000,1.0950000,-0.0062829,0.0002859,-0.1605203,-0.0062829,-0.0050808,-0.0158606
1.0975000,1.0975000,1.0975000,-0.0061954,0.0002838,-0.1594075,-0.0061954,-0.0050096,-0.0156457
1.1000000,1.1000000,1.1000000,-0.0061093,0.0002817,-0.1583049,-0.0061093,-0.0049394,-0.0154343
1.1025000,1.1025000,1.1025000,-0.0060247,0.0002797,-0.1572125,-0.0060247,-0.0048705,-0.0152262
1.1050000,1.1050000,1.1050000,-0.0059414,0.0002776,-0.1561302,-0.0059414,-0.0048026,-0.0150214
1.1075000,1.1075000,1.1075000,-0.0058594,0.0002756,-0.1550578,-0.0058594,-0.0047358,-0.0148199
1.1100000,1.1100000,1.1100000,-0.0057788,0.0002736,-0.1539953,-0.0057788,-0.0046701,-0.0146216
1.1125000,1.1125000,1.1125000,-0.0056995,0.0002716,-0.1529425,-0.0056995,-0.0046055,-0.0144264
1.1150000,1.1150000,1.1150000,-0.0056214,0.0002697,-0.1518993,-0.0056214,-0.0045419,-0.0142343
1.1175000,1.1175000,1.1175000,-0.0055446,0.0002677,-0.1508656,-0.0055446,-0.0044793,-0.0140453
1.1200000,1.1200000,1.1200000,-0.0054690,0.0002658,-0.1498413,-0.0054690,-0.0044177,-0.0138592
1.1225000,1.1225000,1.1225000,-0.0053946,0.0002639,-0.1488263,-0.0053946,-0.0043570,-0.0136760
1.1250000,1.1250000,1.1250000,-0.0053214,0.0002620,-0.1478205,-0.0053214,-0.0042974,-0.0134957
1.1275000,1.1275000,1.1275000,-0.0052494,0.0002601,-0.1468238,-0.0052494,-0.0042387,-0.0133183
1.1300000,1.1300000,1.1300000,-0.0051785,0.0002583,-0.1458360,-0.0051785,-0.0041809,-0.0131436
1.1325000,1.1325000,1.1325000,-0.0051087,0.0002565,-0.1448571,-0.0051087,-0.0041240,-0.0129716
1.1350000,1.1350000,1.1350000,-0.0050400,0.0002547,-0.1438870,-0.0050400,-0.0040680,-0.0128022
1.1375000,1.1375000,1.1375000,-0.0049724,0.0002529,-0.1429256,-0.0049724,-0.0040129,-0.0126355
1.1400000,1.1400000,1.1400000,-0.0049058,0.0002511,-0.1419727,-0.0049058,-0.0039586,-0.0124714
1.1425000,1.1425000,1.1425000,-0.0048403,0.0002493,-0.1410283,-0.0048403,-0.0039052,-0.0123098
1.1450000,1.1450000,1.1450000,-0.0047758,0.0002476,-0.1400923,-0.0047758,-0.0038526,-0.0121507
1.1475000,1.1475000,1.1475000,-0.0047123,0.0002459,-0.1391646,-0.0047123,-0.0038008,-0.0119940
1.1500000,1.1500000,1.1500000,-0.0046498,0.0002442,-0.1382451,-0.0046498,-0.0037499,-0.0118397
1.1525000,1.1525000,1.1525000,-0.0045883,0.0002425,-0.1373337,-0.0045883,-0.0036997,-0.0116878
1.1550000,1.1550000,1.1550000,-0.0045277,0.0002408,-0.1364304,-0.0045277,-0.0036503,-0.0115381
1.1575000,1.1575000,1.1575000,-0.0044681,0.0002392,-0.1355350,-0.0044681,-0.0036017,-0.0113908
1.1600000,1.1600000,1.1600000,-0.0044093,0.0002375,-0.1346474,-0.0044093,-0.0035538,-0.0112457
1.1625000,1.1625000,1.1625000,-0.0043515,0.0002359,-0.1337676,-0.0043515,-0.0035066,-0.0111027
1.1650000,1.1650000,1.1650000,-0.0042945,0.0002343,-0.1328954,-0.0042945,-0.0034602,-0.0109620
1.1675000,1.1675000,1.1675000,-0.0042385,0.0002327,-0.1320309,-0.0042385,-0.0034144,-0.0108233
1.1700000,1.1700000,1.1700000,-0.0041832,0.0002311,-0.1311738,-0.0041832,-0.0033694,-0.0106867
1.1725000,1.1725000,1.1725000,-0.0041289,0.0002295,-0.1303242,-0.0041289,-0.0033250,-0.0105522
1.1750000,1.1750000,1.1750000,-0.0040753,0.0002280,-0.1294820,-0.0040753,-0.0032814,-0.0104197
1.1775000,1.1775000,1.1775000,-0.0040226,0.0002265,-0.1286470,-0.0040226,-0.0032383,-0.0102891
1.1800000,1.1800000,1.1800000,-0.0039706,0.0002249,-0.1278192,-0.0039706,-0.0031960,-0.0101605
1.1825000,1.1825000,1.1825000,-0.0039194,0.0002234,-0.1269985,-0.0039194,-0.0031542,-0.0100338
1.1850000,1.1850000,1.1850000,-0.0038691,0.0002219,-0.1261848,-0.0038691,-0.0031131,-0.0099090
1.1875000,1.1875000,1.1875000,-0.0038194,0.0002205,-0.1253781,-0.0038194,-0.0030726,-0.0097860
1.1900000,1.1900000,1.1900000,-0.0037705,0.0002190,-0.1245783,-0.0037705,-0.0030328,-0.0096649
1.1925000,1.1925000,1.1925000,-0.0037224,0.0002175,-0.1237853,-0.0037224,-0.0029935,-0.0095455
1.1950000,1.1950000,1.1950000,-0.0036749,0.0002161,-0.1229991,-0.0036749,-0.0029548,-0.0094279
1.1975000,1.1975000,1.1975000,-0.0036282,0.0002147,-0.1222195,-0.0036282,-0.0029166,-0.0093119
1.2000000,1.2000000,1.2000000,-0.0035821,0.0002133,-0.1214465,-0.0035821,-0.0028791,-0.0091977
1.2025000,1.2025000,1.2025000,-0.0035367,0.0002119,-0.1206800,-0.0035367,-0.0028421,-0.0090852
1.2050000,1.2050000,1.2050000,-0.0034921,0.0002105,-0.1199200,-0.0034921,-0.0028056,-0.0089742
1.2075000,1.2075000,1.2075000,-0.0034480,0.0002091,-0.1191664,-0.0034480,-0.0027697,-0.0088649
1.2100000,1.2100000,1.2100000,-0.0034046,0.0002077,-0.1184191,-0.0034046,-0.0027343,-0.0087572
1.2125000,1.2125000,1.2125000,-0.0033619,0.0002064,-0.1176781,-0.0033619,-0.0026994,-0.0086510
1.2150000,1.2150000,1.2150000,-0.0033198,0.0002051,-0.1169432,-0.0033198,-0.0026650,-0.0085464
1.2175000,1.2175000,1.2175000,-0.0032783,0.0002037,-0.1162145,-0.0032783,-0.0026312,-0.0084433
1.2200000,1.2200000,1.2200000,-0.0032374,0.0002024,-0.1154918,-0.0032374,-0.0025978,-0.0083416
1.2225000,1.2225000,1.2225000,-0.0031970,0.0002011,-0.1147752,-0.0031970,-0.0025649,-0.0082414
1.2250000,1.2250000,1.2250000,-0.0031573,0.0001998,-0.1140644,-0.0031573,-0.0025325,-0.0081426
1.2275000,1.2275000,1.2275000,-0.0031182,0.0001986,-0.1133596,-0.0031182,-0.0025006,-0.0080453
1.2300000,1.2300000,1.2300000,-0.0030796,0.0001973,-0.1126606,-0.0030796,-0.0024691,-0.0079493
1.2325000,1.2325000,1.2325000,-0.0030416,0.0001960,-0.1119673,-0.0030416,-0.0024381,-0.0078546
1.2350000,1.2350000,1.2350000,-0.0030041,0.0001948,-0.1112797,-0.0030041,-0.0024075,-0.0077614
1.2375000,1.2375000,1.2375000,-0.0029672,0.0001935,-0.1105977,-0.0029672,-0.0023774,-0.0076694
1.2400000,1.2400000,1.2400000,-0.0029308,0.0001923,-0.1099214,-0.0029308,-0.0023477,-0.0075787
1.2425000,1.2425000,1.2425000,-0.0028949,0.0001911,-0.1092505,-0.0028949,-0.0023184,-0.0074893
1.2450000,1.2450000,1.2450000,-0.0028595,0.0001899,-0.1085851,-0.0028595,-0.0022896,-0.0074012
1.2475000,1.2475000,1.2475000,-0.0028247,0.0001887,-0.1079252,-0.0028247,-0.0022611,-0.0073143
1.2500000,1.2500000,1.2500000,-0.0027903,0.0001875,-0.1072705,-0.0027903,-0.0022331,-0.0072286
1.2525000,1.2525000,1.2525000,-0.0027564,0.0001864,-0.1066212,-0.0027564,-0.0022055,-0.0071441
1.2550000,1.2550000,1.2550000,-0.0027230,0.0001852,-0.1059771,-0.0027230,-0.0021782,-0.0070608
1.2575000,1.2575000,1.2575000,-0.0026901,0.0001841,-0.1053383,-0.0026901,-0.0021513,-0.0069786
1.2600000,1.2600000,1.2600000,-0.0026576,0.0001829,-0.1047045,-0.0026576,-0.0021249,-0.0068976
1.2625000,1.2625000,1.2625000,-0.0026256,0.0001818,-0.1040759,-0.0026256,-0.0020987,-0.0068177
1.2650000,1.2650000,1.2650000,-0.0025941,0.0001807,-0.1034523,-0.0025941,-0.0020730,-0.0067389
1.2675000,1.2675000,1.2675000,-0.0025629,0.0001795,-0.1028336,-0.0025629,-0.0020476,-0.0066612
1.2700000,1.2700000,1.2700000,-0.0025323,0.0001784,-0.1022200,-0.0025323,-0.0020226,-0.0065845
1.2725000,1.2725000,1.2725000,-0.0025020,0.0001773,-0.1016112,-0.0025020,-0.0019979,-0.0065089
1.2750000,1.2750000,1.2750000,-0.0024722,0.0001763,-0.1010072,-0.0024722,-0.0019736,-0.0064344
1.2775000,1.2775000,1.2775000,-0.0024428,0.0001752,-0.1004080,-0.0024428,-0.0019496,-0.0063608
1.2800000,1.2800000,1.2800000,-0.0024138,0.0001741,-0.0998136,-0.0024138,-0.0019259,-0.0062883
1.2825000,1.2825000,1.2825000,-0.0023852,0.0001731,-0.0992239,-0.0023852,-0.0019026,-0.0062167
1.2850000,1.2850000,1.2850000,-0.0023570,0.0001720,-0.0986388,-0.0023570,-0.0018796,-0.0061461
1.2875000,1.2875000,1.2875000,-0.0023291,0.0001710,-0.0980583,-0.0023291,-0.0018569,-0.0060765
1.2900000,1.2900000,1.2900000,-0.0023017,0.0001699,-0.0974824,-0.0023017,-0.0018345,-0.0060078
1.2925000,1.2925000,1.2925000,-0.0022746,0.0001689,-0.0969110,-0.0022746,-0.0018125,-0.0059400
1.2950000,1.2950000,1.2950000,-0.0022480,0.0001679,-0.0963441,-0.0022480,-0.0017907,-0.0058731
1.2975000,1.2975000,1.2975000,-0.0022216,0.0001669,-0.0957816,-0.0022216,-0.0017692,-0.0058072
1.3000000,1.3000000,1.3000000,-0.0021957,0.0001659,-0.0952235,-0.0021957,-0.0017481,-0.0057421
1.3025000,1.3025000,1.3025000,-0.0021701,0.0001649,-0.0946697,-0.0021701,-0.0017272,-0.0056779
1.3050000,1.3050000,1.3050000,-0.0021448,0.0001639,-0.0941202,-0.0021448,-0.0017066,-0.0056145
1.3075000,1.3075000,1.3075000,-0.0021199,0.0001629,-0.0935750,-0.0021199,-0.0016863,-0.0055520
1.3100000,1.3100000,1.3100000,-0.0020953,0.0001620,-0.0930340,-0.0020953,-0.0016662,-0.0054903
1.3125000,1.3125000,1.3125000,-0.0020711,0.0001610,-0.0924972,-0.0020711,-0.0016464,-0.0054295
1.3150000,1.3150000,1.3150000,-0.0020472,0.0001601,-0.0919645,-0.0020472,-0.0016269,-0.0053694
1.3175000,1.3175000,1.3175000,-0.0020236,0.0001591,-0.0914359,-0.0020236,-0.0016077,-0.0053101
1.3200000,1.3200000,1.3200000,-0.0020003,0.0001582,-0.0909113,-0.0020003,-0.0015887,-0.0052516
1.3225000,1.3225000,1.3225000,-0.0019773,0.0001573,-0.0903908,-0.0019773,-0.0015700,-0.0051939
1.3250000,1.3250000,1.3250000,-0.0019547,0.0001563,-0.0898742,-0.0019547,-0.0015515,-0.0051370
1.3275000,1.3275000,1.3275000,-0.0019323,0.0001554,-0.0893616,-0.0019323,-0.0015333,-0.0050807
1.3300000,1.3300000,1.3300000,-0.0019103,0.0001545,-0.0888529,-0.0019103,-0.0015153,-0.0050253
1.3325000,1.3325000,1.3325000,-0.0018885,0.0001536,-0.0883481,-0.0018885,-0.0014976,-0.0049705
1.3350000,1.3350000,1.3350000,-0.0018670,0.0001527,-0.0878470,-0.0018670,-0.0014801,-0.0049164
1.3375000,1.3375000,1.3375000,-0.0018458,0.0001518,-0.0873498,-0.0018458,-0.0014628,-0.0048631
1.3400000,1.3400000,1.3400000,-0.0018249,0.0001510,-0.0868563,-0.0018249,-0.0014458,-0.0048104
1.3425000,1.3425000,1.3425000,-0.0018043,0.0001501,-0.0863666,-0.0018043,-0.0014289,-0.0047585
1.3450000,1.3450000,1.3450000,-0.0017839,0.0001492,-0.0858805,-0.0017839,-0.0014124,-0.0047072
1.3475000,1.3475000,1.3475000,-0.0017638,0.0001484,-0.0853981,-0.0017638,-0.0013960,-0.0046565
1.3500000,1.3500000,1.3500000,-0.0017440,0.0001475,-0.0849193,-0.0017440,-0.0013798,-0.0046065
1.3525000,1.3525000,1.3525000,-0.0017245,0.0001467,-0.0844441,-0.0017245,-0.0013639,-0.0045572
1.3550000,1.3550000,1.3550000,-0.0017051,0.0001458,-0.0839724,-0.0017051,-0.0013481,-0.0045085
1.3575000,1.3575000,1.3575000,-0.0016861,0.0001450,-0.0835043,-0.0016861,-0.0013326,-0.0044604
1.3600000,1.3600000,1.3600000,-0.0016673,0.0001442,-0.0830396,-0.0016673,-0.0013173,-0.0044129
1.3625000,1.3625000,1.3625000,-0.0016487,0.0001434,-0.0825784,-0.0016487,-0.0013022,-0.0043660
1.3650000,1.3650000,1.3650000,-0.0016304,0.0001426,-0.0821206,-0.0016304,-0.0012872,-0.0043197
1.3675000,1.3675000,1.3675000,-0.0016123,0.0001418,-0.0816662,-0.0016123,-0.0012725,-0.0042740
1.3700000,1.3700000,1.3700000,-0.0015945,0.0001410,-0.0812151,-0.0015945,-0.0012579,-0.0042289
1.3725000,1.3725000,1.3725000,-0.0015768,0.0001402,-0.0807674,-0.0015768,-0.0012436,-0.0041844
1.3750000,1.3750000,1.3750000,-0.0015594,0.0001394,-0.0803229,-0.0015594,-0.0012294,-0.0041404
1.3775000,1.3775000,1.3775000,-0.0015423,0.0001386,-0.0798817,-0.0015423,-0.0012154,-0.0040969
1.3800000,1.3800000,1.3800000,-0.0015253,0.0001378,-0.0794438,-0.0015253,-0.0012016,-0.0040540
1.3825000,1.3825000,1.3825000,-0.0015086,0.0001371,-0.0790091,-0.0015086,-0.0011880,-0.0040117
1.3850000,1.3850000,1.3850000,-0.0014921,0.0001363,-0.0785775,-0.0014921,-0.0011746,-0.0039699
1.3875000,1.3875000,1.3875000,-0.0014758,0.0001355,-0.0781491,-0.0014758,-0.0011613,-0.0039286
1.3900000,1.3900000,1.3900000,-0.0014597,0.0001348,-0.0777238,-0.0014597,-0.0011482,-0.0038878
1.3925000,1.3925000,1.3925000,-0.0014438,0.0001340,-0.0773016,-0.0014438,-0.0011352,-0.0038475
1.3950000,1.3950000,1.3950000,-0.0014281,0.0001333,-0.0768824,-0.0014281,-0.0011225,-0.0038077
1.3975000,1.3975000,1.3975000,-0.0014126,0.0001326,-0.0764663,-0.0014126,-0.0011098,-0.0037684
1.4000000,1.4000000,1.4000000,-0.0013973,0.0001318,-0.0760532,-0.0013973,-0.0010974,-0.0037296
1.4025000,1.4025000,1.4025000,-0.0013822,0.0001311,-0.0756430,-0.0013822,-0.0010851,-0.0036913
1.4050000,1.4050000,1.4050000,-0.0013673,0.0001304,-0.0752358,-0.0013673,-0.0010730,-0.0036534
1.4075000,1.4075000,1.4075000,-0.0013526,0.0001297,-0.0748316,-0.0013526,-0.0010610,-0.0036160
1.4100000,1.4100000,1.4100000,-0.0013380,0.0001290,-0.0744302,-0.0013380,-0.0010491,-0.0035791
1.4125000,1.4125000,1.4125000,-0.0013237,0.0001283,-0.0740317,-0.0013237,-0.0010375,-0.0035426
1.4150000,1.4150000,1.4150000,-0.0013095,0.0001276,-0.0736361,-0.0013095,-0.0010259,-0.0035066
1.4175000,1.4175000,1.4175000,-0.0012955,0.0001269,-0.0732432,-0.0012955,-0.0010145,-0.0034710
1.4200000,1.4200000,1.4200000,-0.0012817,0.0001262,-0.0728532,-0.0012817,-0.0010033,-0.0034358
1.4225000,1.4225000,1.4225000,-0.0012680,0.0001255,-0.0724660,-0.0012680,-0.0009922,-0.0034011
1.4250000,1.4250000,1.4250000,-0.0012545,0.0001248,-0.0720814,-0.0012545,-0.0009812,-0.0033668
1.4275000,1.4275000,1.4275000,-0.0012412,0.0001242,-0.0716997,-0.0012412,-0.0009704,-0.0033329
1.4300000,1.4300000,1.4300000,-0.0012280,0.0001235,-0.0713206,-0.0012280,-0.0009597,-0.0032994
1.4325000,1.4325000,1.4325000,-0.0012151,0.0001228,-0.0709442,-0.0012151,-0.0009491,-0.0032663
1.4350000,1.4350000,1.4350000,-0.0012022,0.0001222,-0.0705704,-0.0012022,-0.0009387,-0.0032336
1.4375000,1.4375000,1.4375000,-0.0011896,0.0001215,-0.0701992,-0.0011896,-0.0009284,-0.0032013
1.4400000,1.4400000,1.4400000,-0.0011770,0.0001209,-0.0698307,-0.0011770,-0.0009182,-0.0031694
1.4425000,1.4425000,1.4425000,-0.0011647,0.0001202,-0.0694648,-0.0011647,-0.0009082,-0.0031378
1.4450000,1.4450000,1.4450000,-0.0011525,0.0001196,-0.0691014,-0.0011525,-0.0008982,-0.0031067
1.4475000,1.4475000,1.4475000,-0.0011404,0.0001189,-0.0687405,-0.0011404,-0.0008884,-0.0030759
1.4500000,1.4500000,1.4500000,-0.0011285,0.0001183,-0.0683822,-0.0011285,-0.0008788,-0.0030455
1.4525000,1.4525000,1.4525000,-0.0011167,0.0001177,-0.0680263,-0.0011167,-0.0008692,-0.0030154
1.4550000,1.4550000,1.4550000,-0.0011051,0.0001171,-0.0676729,-0.0011051,-0.0008597,-0.0029857
1.4575000,1.4575000,1.4575000,-0.0010936,0.0001165,-0.0673220,-0.0010936,-0.0008504,-0.0029564
1.4600000,1.4600000,1.4600000,-0.0010823,0.0001158,-0.0669735,-0.0010823,-0.0008412,-0.0029274
1.4625000,1.4625000,1.4625000,-0.0010711,0.0001152,-0.0666274,-0.0010711,-0.0008321,-0.0028987
1.4650000,1.4650000,1.4650000,-0.0010600,0.0001146,-0.0662837,-0.0010600,-0.0008231,-0.0028704
1.4675000,1.4675000,1.4675000,-0.0010491,0.0001140,-0.0659423,-0.0010491,-0.0008142,-0.0028424
1.4700000,1.4700000,1.4700000,-0.0010383,0.0001134,-0.0656033,-0.0010383,-0.0008054,-0.0028147
1.4725000,1.4725000,1.4725000,-0.0010276,0.0001128,-0.0652667,-0.0010276,-0.0007968,-0.0027874
1.4750000,1.4750000,1.4750000,-0.0010170,0.0001123,-0.0649323,-0.0010170,-0.0007882,-0.0027603
1.4775000,1.4775000,1.4775000,-0.0010066,0.0001117,-0.0646002,-0.0010066,-0.0007798,-0.0027336
1.4800000,1.4800000,1.4800000,-0.0009963,0.0001111,-0.0642704,-0.0009963,-0.0007714,-0.0027072
1.4825000,1.4825000,1.4825000,-0.0009861,0.0001105,-0.0639428,-0.0009861,-0.0007631,-0.0026811
1.4850000,1.4850000,1.4850000,-0.0009761,0.0001099,-0.0636175,-0.0009761,-0.0007550,-0.0026554
1.4875000,1.4875000,1.4875000,-0.0009662,0.0001094,-0.0632943,-0.0009662,-0.0007469,-0.0026299
1.4900000,1.4900000,1.4900000,-0.0009563,0.0001088,-0.0629734,-0.0009563,-0.0007390,-0.0026047
1.4925000,1.4925000,1.4925000,-0.0009466,0.0001083,-0.0626546,-0.0009466,-0.0007311,-0.0025798
1.4950000,1.4950000,1.4950000,-0.0009371,0.0001077,-0.0623380,-0.0009371,-0.0007233,-0.0025551
1.4975000,1.4975000,1.4975000,-0.0009276,0.0001072,-0.0620235,-0.0009276,-0.0007156,-0.0025308
1.5000000,1.5000000,1.5000000,-0.0009182,0.0001066,-0.0617111,-0.0009182,-0.0007080,-0.0025067
1.5025000,1.5025000,1.5025000,-0.0009090,0.0001061,-0.0614009,-0.0009090,-0.0007005,-0.0024830
1.5050000,1.5050000,1.5050000,-0.0008998,0.0001055,-0.0610927,-0.0008998,-0.0006931,-0.0024594
1.5075000,1.5075000,1.5075000,-0.0008908,0.0001050,-0.0607865,-0.0008908,-0.0006858,-0.0024362
1.5100000,1.5100000,1.5100000,-0.0008819,0.0001045,-0.0604825,-0.0008819,-0.0006786,-0.0024132
1.5125000,1.5125000,1.5125000,-0.0008730,0.0001039,-0.0601804,-0.0008730,-0.0006714,-0.0023905
1.5150000,1.5150000,1.5150000,-0.0008643,0.0001034,-0.0598804,-0.0008643,-0.0006644,-0.0023680
1.5175000,1.5175000,1.5175000,-0.0008557,0.0001029,-0.0595823,-0.0008557,-0.0006574,-0.0023458
1.5200000,1.5200000,1.5200000,-0.0008472,0.0001024,-0.0592863,-0.0008472,-0.0006505,-0.0023239
1.5225000,1.5225000,1.5225000,-0.0008388,0.0001019,-0.0589922,-0.0008388,-0.0006436,-0.0023021
1.5250000,1.5250000,1.5250000,-0.0008305,0.0001013,-0.0587000,-0.0008305,-0.0006369,-0.0022807
1.5275000,1.5275000,1.5275000,-0.0008222,0.0001008,-0.0584098,-0.0008222,-0.0006302,-0.0022594
1.5300000,1.5300000,1.5300000,-0.0008141,0.0001003,-0.0581215,-0.0008141,-0.0006237,-0.0022385
1.5325000,1.5325000,1.5325000,-0.0008061,0.0000998,-0.0578350,-0.0008061,-0.0006172,-0.0022177
1.5350000,1.5350000,1.5350000,-0.0007981,0.0000993,-0.0575505,-0.0007981,-0.0006107,-0.0021972
1.5375000,1.5375000,1.5375000,-0.0007903,0.0000988,-0.0572679,-0.0007903,-0.0006044,-0.0021769
1.5400000,1.5400000,1.5400000,-0.0007825,0.0000983,-0.0569870,-0.0007825,-0.0005981,-0.0021568
1.5425000,1.5425000,1.5425000,-0.0007748,0.0000979,-0.0567081,-0.0007748,-0.0005919,-0.0021370
1.5450000,1.5450000,1.5450000,-0.0007672,0.0000974,-0.0564309,-0.0007672,-0.0005857,-0.0021173
1.5475000,1.5475000,1.5475000,-0.0007597,0.0000969,-0.0561556,-0.0007597,-0.0005797,-0.0020979
1.5500000,1.5500000,1.5500000,-0.0007523,0.0000964,-0.0558820,-0.0007523,-0.0005737,-0.0020787
1.5525000,1.5525000,1.5525000,-0.0007450,0.0000959,-0.0556102,-0.0007450,-0.0005678,-0.0020598
1.5550000,1.5550000,1.5550000,-0.0007378,0.0000955,-0.0553402,-0.0007378,-0.0005619,-0.0020410
1.5575000,1.5575000,1.5575000,-0.0007306,0.0000950,-0.0550720,-0.0007306,-0.0005561,-0.0020224
1.5600000,1.5600000,1.5600000,-0.0007235,0.0000945,-0.0548054,-0.0007235,-0.0005504,-0.0020040
1.5625000,1.5625000,1.5625000,-0.0007165,0.0000941,-0.0545406,-0.0007165,-0.0005447,-0.0019859
1.5650000,1.5650000,1.5650000,-0.0007096,0.0000936,-0.0542775,-0.0007096,-0.0005391,-0.0019679
1.5675000,1.5675000,1.5675000,-0.0007027,0.0000932,-0.0540161,-0.0007027,-0.0005336,-0.0019502
1.5700000,1.5700000,1.5700000,-0.0006960,0.0000927,-0.0537564,-0.0006960,-0.0005281,-0.0019326
1.5725000,1.5725000,1.5725000,-0.0006893,0.0000923,-0.0534983,-0.0006893,-0.0005227,-0.0019152
1.5750000,1.5750000,1.5750000,-0.0006827,0.0000918,-0.0532419,-0.0006827,-0.0005174,-0.0018980
1.5775000,1.5775000,1.5775000,-0.0006761,0.0000914,-0.0529871,-0.0006761,-0.0005121,-0.0018810
1.5800000,1.5800000,1.5800000,-0.0006696,0.0000909,-0.0527340,-0.0006696,-0.0005069,-0.0018642
1.5825000,1.5825000,1.5825000,-0.0006632,0.0000905,-0.0524824,-0.0006632,-0.0005017,-0.0018475
1.5850000,1.5850000,1.5850000,-0.0006569,0.0000900,-0.0522325,-0.0006569,-0.0004966,-0.0018311
1.5875000,1.5875000,1.5875000,-0.0006507,0.0000896,-0.0519842,-0.0006507,-0.0004916,-0.0018148
1.5900000,1.5900000,1.5900000,-0.0006445,0.0000892,-0.0517374,-0.0006445,-0.0004866,-0.0017987
1.5925000,1.5925000,1.5925000,-0.0006384,0.0000888,-0.0514922,-0.0006384,-0.0004816,-0.0017827
1.5950000,1.5950000,1.5950000,-0.0006323,0.0000883,-0.0512485,-0.0006323,-0.0004767,-0.0017669
1.5975000,1.5975000,1.5975000,-0.0006263,0.0000879,-0.0510064,-0.0006263,-0.0004719,-0.0017513
