# r[nm],d[nm],daligned[nm],U(d)[kj/mol],V(d)[e/nm],Uslab(d)[kJ/mol],UC(d)[kJ/mol],UK(d)[kJ/mol],UCl(d)[kJ/mol]
0.1775000,0.1775000,0.1775000,1817.9369333,-0.3989984,133.9610685,1817.9369333,1139.4549629,inf
0.1800000,0.1800000,0.1800000,1598.8321082,-0.3899150,117.3874483,1598.8321082,1001.5250502,inf
0.1825000,0.1825000,0.1825000,1407.1430676,-0.3811227,103.0150251,1407.1430676,880.9332385,inf
0.1850000,0.1850000,0.1850000,1239.3237492,-0.3726161,90.5325326,1239.3237492,775.4300000,inf
0.1875000,0.1875000,0.1875000,1092.3020191,-0.3643893,79.6771297,1092.3020191,683.0671446,inf
0.1900000,0.1900000,0.1900000,963.4142604,-0.3564356,70.2254072,963.4142604,602.1561580,inf
0.1925000,0.1925000,0.1925000,850.3492868,-0.3487478,61.9863249,850.3492868,531.2324141,inf
0.1950000,0.1950000,0.1950000,751.1000641,-0.3413171,54.7956548,751.1000641,469.0234569,inf
0.1975000,0.1975000,0.1975000,663.9190028,-0.3341085,48.5115697,663.9190028,414.4156136,inf
0.2000000,0.2000000,0.2000000,587.2508789,-0.3268939,43.0111348,587.2508789,366.4100289,inf
0.2025000,0.2025000,0.2025000,519.5902850,-0.3190198,38.1875596,519.5902850,324.0850045,inf
0.2050000,0.2050000,0.2050000,459.4615524,-0.3106624,33.9481271,459.4615524,286.6300485,inf
0.2075000,0.2075000,0.2075000,405.9145865,-0.3038006,30.2126840,405.9145865,253.4377006,1711.9032970
0.2100000,0.2100000,0.2100000,358.5365153,-0.2987754,26.9124872,358.5365153,224.0856687,1510.9248998
0.2125000,0.2125000,0.2125000,316.8609006,-0.2946387,23.9891413,316.8609006,198.2153359,1334.8886691
0.2150000,0.2150000,0.2150000,280.2861197,-0.2908024,21.3934104,280.2861197,175.4675260,1180.5293519
0.2175000,0.2175000,0.2175000,248.2001197,-0.2870253,19.0838502,248.2001197,155.4871257,1045.0328532
0.2200000,0.2200000,0.2200000,220.0407223,-0.2831951,17.0253709,220.0407223,137.9406831,925.9704986
0.2225000,0.2225000,0.2225000,195.3097001,-0.2792370,15.1879195,195.3097001,122.5261020,821.2433868
0.2250000,0.2250000,0.2250000,173.5710092,-0.2750883,13.5454285,173.5710092,108.9750423,729.0352018
0.2275000,0.2275000,0.2275000,154.4447184,-0.2706966,12.0750763,154.4447184,97.0515496,647.7721315
0.2300000,0.2300000,0.2300000,137.6002722,-0.2660270,10.7568081,137.6002722,86.5491396,576.0887678
0.2325000,0.2325000,0.2325000,122.7501508,-0.2610700,9.5730202,122.7501508,77.2874523,512.7990461
0.2350000,0.2350000,0.2350000,109.6441675,-0.2558423,8.5083118,109.6441675,69.1090491,456.8714387
0.2375000,0.2375000,0.2375000,98.0644042,-0.2503786,7.5492408,98.0644042,61.8766434,407.4077400
0.2400000,0.2400000,0.2400000,87.8207665,-0.2447174,6.6840576,87.8207665,55.4708435,363.6248932
0.2425000,0.2425000,0.2425000,78.7471931,-0.2388881,5.9024350,78.7471931,49.7882944,324.8393966
0.2450000,0.2450000,0.2450000,70.6985621,-0.2329083,5.1952292,70.6985621,44.7400002,290.4539084
0.2475000,0.2475000,0.2475000,63.5482630,-0.2267927,4.5542999,63.5482630,40.2496299,259.9457360
0.2500000,0.2500000,0.2500000,57.1862672,-0.2205677,3.9723894,57.1862672,36.2517378,232.8569466
0.2525000,0.2525000,0.2525000,51.5174427,-0.2142810,3.4430423,51.5174427,32.6899653,208.7858732
0.2550000,0.2550000,0.2550000,46.4598809,-0.2080004,2.9605404,46.4598809,29.5153671,187.3798140
0.2575000,0.2575000,0.2575000,41.9431322,-0.2018008,2.5198396,41.9431322,26.6849911,168.3287363
0.2600000,0.2600000,0.2600000,37.9064004,-0.1957475,2.1165033,37.9064004,24.1607775,151.3598102
0.2625000,0.2625000,0.2625000,34.2968318,-0.1898830,1.7466264,34.2968318,21.9087629,136.2326301
0.2650000,0.2650000,0.2650000,31.0680379,-0.1842223,1.4067381,31.0680379,19.8985247,122.7350385
0.2675000,0.2675000,0.2675000,28.1789269,-0.1787568,1.0936814,28.1789269,18.1027873,110.6795298
0.2700000,0.2700000,0.2700000,25.5928434,-0.1734653,0.8044870,25.5928434,16.4971182,99.9002480
0.2725000,0.2725000,0.2725000,23.2769599,-0.1683252,0.5362813,23.2769599,15.0596721,90.2505721
0.2750000,0.2750000,0.2750000,21.2018388,-0.1633223,0.2862572,21.2018388,13.7709631,81.6012079
0.2775000,0.2775000,0.2775000,19.3410919,-0.1584554,0.0517132,19.3410919,12.6136604,73.8386188
0.2800000,0.2800000,0.2800000,17.6710883,-0.1537350,-0.1698531,17.6710883,11.5724064,66.8635867
0.2825000,0.2825000,0.2825000,16.1706879,-0.1491791,-0.3806220,16.1706879,10.6336511,60.5897275
0.2850000,0.2850000,0.2850000,14.8209995,-0.1448076,-0.5823330,14.8209995,9.7854925,54.9418939
0.2875000,0.2875000,0.2875000,13.6051651,-0.1406371,-0.7762064,13.6051651,9.0175123,49.8545170
0.2900000,0.2900000,0.2900000,12.5081751,-0.1366783,-0.9629327,12.5081751,8.3206040,45.2700116
0.2925000,0.2925000,0.2925000,11.5167035,-0.1329331,-1.1427293,11.5167035,7.6867991,41.1373751
0.2950000,0.2950000,0.2950000,10.6189538,-0.1293927,-1.3154453,10.6189538,7.1091053,37.4110623
0.2975000,0.2975000,0.2975000,9.8045033,-0.1260343,-1.4806843,9.8045033,6.5813676,34.0501483
0.3000000,0.3000000,0.3000000,9.0641449,-0.1228185,-1.6379241,9.0641449,6.0981575,31.0177388
0.3025000,0.3025000,0.3025000,8.3897321,-0.1196895,-1.7866179,8.3897321,5.6546855,28.2805551
0.3050000,0.3050000,0.3050000,7.7740407,-0.1165788,-1.9262711,7.7740407,5.2467276,25.8086176
0.3075000,0.3075000,0.3075000,7.2106571,-0.1134134,-2.0564928,7.2106571,4.8705586,23.5749707
0.3100000,0.3100000,0.3100000,6.6938941,-0.1101267,-2.1770218,6.6938941,4.5228889,21.5554127
0.3125000,0.3125000,0.3125000,6.2187267,-0.1066684,-2.2877340,6.2187267,4.2008072,19.7282245
0.3150000,0.3150000,0.3150000,5.7807371,-0.1030130,-2.3886334,5.7807371,3.9017278,18.0739035
0.3175000,0.3175000,0.3175000,5.3760593,-0.0991634,-2.4798356,5.3760593,3.6233387,16.5749191
0.3200000,0.3200000,0.3200000,5.0013194,-0.0951502,-2.5615464,5.0013194,3.3635399,15.2155006
0.3225000,0.3225000,0.3225000,4.6535728,-0.0910277,-2.6340417,4.6535728,3.1203664,13.9814579
0.3250000,0.3250000,0.3250000,4.3302404,-0.0868667,-2.6976493,4.3302404,2.8919055,12.8600317
0.3275000,0.3275000,0.3275000,4.0290436,-0.0827472,-2.7527343,4.0290436,2.6762312,11.8397590
0.3300000,0.3300000,0.3300000,3.7479346,-0.0787530,-2.7996880,3.7479346,2.4713875,10.9103469
0.3325000,0.3325000,0.3325000,3.4850203,-0.0749680,-2.8389201,3.4850203,2.2754397,10.0625488
0.3350000,0.3350000,0.3350000,3.2384832,-0.0714734,-2.8708529,3.2384832,2.0865879,9.2880480
0.3375000,0.3375000,0.3375000,3.0065141,-0.0683435,-2.8959169,3.0065141,1.9033138,8.5793541
0.3400000,0.3400000,0.3400000,2.7872776,-0.0656391,-2.9145474,2.7872776,1.7245113,7.9297199
0.3425000,0.3425000,0.3425000,2.5789280,-0.0633986,-2.9271806,2.5789280,1.5495616,7.3330783
0.3450000,0.3450000,0.3450000,2.3796807,-0.0616298,-2.9342507,2.3796807,1.3783298,6.7839955
0.3475000,0.3475000,0.3475000,2.1879204,-0.0603053,-2.9361865,2.1879204,1.2110906,6.2776319
0.3500000,0.3500000,0.3500000,2.0023155,-0.0593628,-2.9334082,2.0023155,1.0484069,5.8097030
0.3525000,0.3525000,0.3525000,1.8219040,-0.0587107,-2.9263245,1.8219040,0.8909931,5.3764347
0.3550000,0.3550000,0.3550000,1.6461286,-0.0582389,-2.9153296,1.6461286,0.7395917,4.9745124
0.3575000,0.3575000,0.3575000,1.4748181,-0.0578324,-2.9008014,1.4748181,0.5948767,4.6010234
0.3600000,0.3600000,0.3600000,1.3081245,-0.0573867,-2.8830992,1.3081245,0.4573934,4.2533943
0.3625000,0.3625000,0.3625000,1.1464347,-0.0568207,-2.8625625,1.1464347,0.3275284,3.9293237
0.3650000,0.3650000,0.3650000,0.9902738,-0.0560849,-2.8395104,0.9902738,0.2055061,3.6267103
0.3675000,0.3675000,0.3675000,0.8402139,-0.0551635,-2.8142404,0.8402139,0.0914038,3.3435825
0.3700000,0.3700000,0.3700000,0.6967971,-0.0540690,-2.7870292,0.6967971,-0.0148228,3.0780363
0.3725000,0.3725000,0.3725000,0.5604782,-0.0528333,-2.7581323,0.5604782,-0.1133081,2.8281950
0.3750000,0.3750000,0.3750000,0.4315901,-0.0514966,-2.7277849,0.4315901,-0.2042455,2.5922008
0.3775000,0.3775000,0.3775000,0.3103309,-0.0500983,-2.6962025,0.3103309,-0.2878612,2.3682438
0.3800000,0.3800000,0.3800000,0.1967694,-0.0486703,-2.6635815,0.1967694,-0.3643950,2.1546202
0.3825000,0.3825000,0.3825000,0.0908638,-0.0472341,-2.6301008,0.0908638,-0.4340889,1.9498082
0.3850000,0.3850000,0.3850000,-0.0075122,-0.0458006,-2.5959223,-0.0075122,-0.4971833,1.7525397
0.3875000,0.3875000,0.3875000,-0.0985427,-0.0443726,-2.5611925,-0.0985427,-0.5539179,1.5618541
0.3900000,0.3900000,0.3900000,-0.1824466,-0.0429475,-2.5260430,-0.1824466,-0.6045354,1.3771220
0.3925000,0.3925000,0.3925000,-0.2594600,-0.0415204,-2.4905921,-0.2594600,-0.6492858,1.1980364
0.3950000,0.3950000,0.3950000,-0.3298251,-0.0400865,-2.4549458,-0.3298251,-0.6884308,1.0245732
0.3975000,0.3975000,0.3975000,-0.3937858,-0.0386434,-2.4191986,-0.3937858,-0.7222452,0.8569291
0.4000000,0.4000000,0.4000000,-0.4515856,-0.0371916,-2.3834344,-0.4515856,-0.7510182,0.6954467
0.4025000,0.4025000,0.4025000,-0.5034703,-0.0357348,-2.3477279,-0.5034703,-0.7750516,0.5405369
0.4050000,0.4050000,0.4050000,-0.5496902,-0.0342795,-2.3121449,-0.5496902,-0.7946572,0.3926112
0.4075000,0.4075000,0.4075000,-0.5905027,-0.0328344,-2.2767436,-0.5905027,-0.8101532,0.2520279
0.4100000,0.4100000,0.4100000,-0.6261743,-0.0314089,-2.2415748,-0.6261743,-0.8218601,0.1190584
0.4125000,0.4125000,0.4125000,-0.6569809,-0.0300129,-2.2066831,-0.6569809,-0.8300964,-0.0061286
0.4150000,0.4150000,0.4150000,-0.6832076,-0.0286556,-2.1721071,-0.6832076,-0.8351748,-0.1234666
0.4175000,0.4175000,0.4175000,-0.7051462,-0.0273450,-2.1378805,-0.7051462,-0.8373987,-0.2329804
0.4200000,0.4200000,0.4200000,-0.7230929,-0.0260876,-2.1040318,-0.7230929,-0.8370591,-0.3347695
0.4225000,0.4225000,0.4225000,-0.7373453,-0.0248883,-2.0705857,-0.7373453,-0.8344326,-0.4289896
0.4250000,0.4250000,0.4250000,-0.7481986,-0.0237504,-2.0375629,-0.7481986,-0.8297796,-0.5158352
0.4275000,0.4275000,0.4275000,-0.7559430,-0.0226758,-2.0049808,-0.7559430,-0.8233434,-0.5955259
0.4300000,0.4300000,0.4300000,-0.7608601,-0.0216647,-1.9728536,-0.7608601,-0.8153496,-0.6682966
0.4325000,0.4325000,0.4325000,-0.7632214,-0.0207166,-1.9411930,-0.7632214,-0.8060059,-0.7343910
0.4350000,0.4350000,0.4350000,-0.7632852,-0.0198298,-1.9100081,-0.7632852,-0.7955027,-0.7940584
0.4375000,0.4375000,0.4375000,-0.7612963,-0.0190021,-1.8793059,-0.7612963,-0.7840134,-0.8475531
0.4400000,0.4400000,0.4400000,-0.7574840,-0.0182308,-1.8490916,-0.7574840,-0.7716949,-0.8951344
0.4425000,0.4425000,0.4425000,-0.7520623,-0.0175128,-1.8193685,-0.7520623,-0.7586890,-0.9370678
0.4450000,0.4450000,0.4450000,-0.7452293,-0.0168447,-1.7901385,-0.7452293,-0.7451230,-0.9736252
0.4475000,0.4475000,0.4475000,-0.7371675,-0.0162234,-1.7614022,-0.7371675,-0.7311105,-1.0050852
0.4500000,0.4500000,0.4500000,-0.7280439,-0.0156454,-1.7331588,-0.7280439,-0.7167532,-1.0317325
0.4525000,0.4525000,0.4525000,-0.7180112,-0.0151075,-1.7054069,-0.7180112,-0.7021409,-1.0538563
0.4550000,0.4550000,0.4550000,-0.7072077,-0.0146066,-1.6781438,-0.7072077,-0.6873533,-1.0717488
0.4575000,0.4575000,0.4575000,-0.6957586,-0.0141396,-1.6513661,-0.6957586,-0.6724605,-1.0857025
0.4600000,0.4600000,0.4600000,-0.6837768,-0.0137039,-1.6250697,-0.6837768,-0.6575240,-1.0960079
0.4625000,0.4625000,0.4625000,-0.6713635,-0.0132967,-1.5992502,-0.6713635,-0.6425976,-1.1029512
0.4650000,0.4650000,0.4650000,-0.6586092,-0.0129157,-1.5739022,-0.6586092,-0.6277280,-1.1068117
0.4675000,0.4675000,0.4675000,-0.6455948,-0.0125586,-1.5490202,-0.6455948,-0.6129557,-1.1078598
0.4700000,0.4700000,0.4700000,-0.6323920,-0.0122232,-1.5245982,-0.6323920,-0.5983155,-1.1063554
0.4725000,0.4725000,0.4725000,-0.6190644,-0.0119079,-1.5006299,-0.6190644,-0.5838373,-1.1025465
0.4750000,0.4750000,0.4750000,-0.6056680,-0.0116108,-1.4771087,-0.6056680,-0.5695463,-1.0966680
0.4775000,0.4775000,0.4775000,-0.5922523,-0.0113303,-1.4540279,-0.5922523,-0.5554639,-1.0889411
0.4800000,0.4800000,0.4800000,-0.5788604,-0.0110650,-1.4313804,-0.5788604,-0.5416078,-1.0795731
0.4825000,0.4825000,0.4825000,-0.5655299,-0.0108137,-1.4091593,-0.5655299,-0.5279929,-1.0687571
0.4850000,0.4850000,0.4850000,-0.5522938,-0.0105752,-1.3873572,-0.5522938,-0.5146308,-1.0566719
0.4875000,0.4875000,0.4875000,-0.5391801,-0.0103483,-1.3659670,-0.5391801,-0.5015311,-1.0434827
0.4900000,0.4900000,0.4900000,-0.5262132,-0.0101322,-1.3449813,-0.5262132,-0.4887010,-1.0293415
0.4925000,0.4925000,0.4925000,-0.5134139,-0.0099260,-1.3243927,-0.5134139,-0.4761459,-1.0143873
0.4950000,0.4950000,0.4950000,-0.5007996,-0.0097288,-1.3041939,-0.5007996,-0.4638695,-0.9987469
0.4975000,0.4975000,0.4975000,-0.4883849,-0.0095401,-1.2843776,-0.4883849,-0.4518742,-0.9825359
0.5000000,0.5000000,0.5000000,-0.4761822,-0.0093590,-1.2649364,-0.4761822,-0.4401608,-0.9658588
0.5025000,0.5025000,0.5025000,-0.4642012,-0.0091852,-1.2458631,-0.4642012,-0.4287294,-0.9488101
0.5050000,0.5050000,0.5050000,-0.4524500,-0.0090179,-1.2271505,-0.4524500,-0.4175788,-0.9314751
0.5075000,0.5075000,0.5075000,-0.4409346,-0.0088568,-1.2087914,-0.4409346,-0.4067072,-0.9139303
0.5100000,0.5100000,0.5100000,-0.4296597,-0.0087014,-1.1907787,-0.4296597,-0.3961121,-0.8962442
0.5125000,0.5125000,0.5125000,-0.4186286,-0.0085514,-1.1731054,-0.4186286,-0.3857903,-0.8784780
0.5150000,0.5150000,0.5150000,-0.4078433,-0.0084063,-1.1557647,-0.4078433,-0.3757381,-0.8606862
0.5175000,0.5175000,0.5175000,-0.3973048,-0.0082659,-1.1387497,-0.3973048,-0.3659516,-0.8429170
0.5200000,0.5200000,0.5200000,-0.3870131,-0.0081299,-1.1220537,-0.3870131,-0.3564261,-0.8252131
0.5225000,0.5225000,0.5225000,-0.3769677,-0.0079979,-1.1056702,-0.3769677,-0.3471570,-0.8076122
0.5250000,0.5250000,0.5250000,-0.3671670,-0.0078698,-1.0895926,-0.3671670,-0.3381394,-0.7901471
0.5275000,0.5275000,0.5275000,-0.3576091,-0.0077453,-1.0738145,-0.3576091,-0.3293680,-0.7728466
0.5300000,0.5300000,0.5300000,-0.3482915,-0.0076243,-1.0583296,-0.3482915,-0.3208377,-0.7557356
0.5325000,0.5325000,0.5325000,-0.3392111,-0.0075064,-1.0431319,-0.3392111,-0.3125429,-0.7388357
0.5350000,0.5350000,0.5350000,-0.3303647,-0.0073917,-1.0282152,-0.3303647,-0.3044784,-0.7221653
0.5375000,0.5375000,0.5375000,-0.3217486,-0.0072799,-1.0135736,-0.3217486,-0.2966384,-0.7057399
0.5400000,0.5400000,0.5400000,-0.3133590,-0.0071708,-0.9992013,-0.3133590,-0.2890176,-0.6895728
0.5425000,0.5425000,0.5425000,-0.3051916,-0.0070644,-0.9850926,-0.3051916,-0.2816104,-0.6736748
0.5450000,0.5450000,0.5450000,-0.2972423,-0.0069605,-0.9712419,-0.2972423,-0.2744113,-0.6580547
0.5475000,0.5475000,0.5475000,-0.2895065,-0.0068590,-0.9576437,-0.2895065,-0.2674148,-0.6427196
0.5500000,0.5500000,0.5500000,-0.2819799,-0.0067598,-0.9442927,-0.2819799,-0.2606156,-0.6276751
0.5525000,0.5525000,0.5525000,-0.2746577,-0.0066628,-0.9311837,-0.2746577,-0.2540083,-0.6129251
0.5550000,0.5550000,0.5550000,-0.2675353,-0.0065679,-0.9183114,-0.2675353,-0.2475877,-0.5984724
0.5575000,0.5575000,0.5575000,-0.2606081,-0.0064751,-0.9056709,-0.2606081,-0.2413485,-0.5843186
0.5600000,0.5600000,0.5600000,-0.2538713,-0.0063842,-0.8932572,-0.2538713,-0.2352858,-0.5704643
0.5625000,0.5625000,0.5625000,-0.2473203,-0.0062952,-0.8810656,-0.2473203,-0.2293944,-0.5569094
0.5650000,0.5650000,0.5650000,-0.2409504,-0.0062080,-0.8690914,-0.2409504,-0.2236695,-0.5436528
0.5675000,0.5675000,0.5675000,-0.2347569,-0.0061226,-0.8573299,-0.2347569,-0.2181063,-0.5306928
0.5700000,0.5700000,0.5700000,-0.2287354,-0.0060388,-0.8457766,-0.2287354,-0.2127002,-0.5180271
0.5725000,0.5725000,0.5725000,-0.2228812,-0.0059567,-0.8344272,-0.2228812,-0.2074465,-0.5056529
0.5750000,0.5750000,0.5750000,-0.2171899,-0.0058762,-0.8232774,-0.2171899,-0.2023408,-0.4935669
0.5775000,0.5775000,0.5775000,-0.2116572,-0.0057972,-0.8123229,-0.2116572,-0.1973787,-0.4817656
0.5800000,0.5800000,0.5800000,-0.2062786,-0.0057197,-0.8015597,-0.2062786,-0.1925560,-0.4702449
0.5825000,0.5825000,0.5825000,-0.2010499,-0.0056437,-0.7909838,-0.2010499,-0.1878686,-0.4590006
0.5850000,0.5850000,0.5850000,-0.1959670,-0.0055691,-0.7805912,-0.1959670,-0.1833125,-0.4480282
0.5875000,0.5875000,0.5875000,-0.1910258,-0.0054958,-0.7703781,-0.1910258,-0.1788836,-0.4373231
0.5900000,0.5900000,0.5900000,-0.1862223,-0.0054238,-0.7603408,-0.1862223,-0.1745783,-0.4268804
0.5925000,0.5925000,0.5925000,-0.1815525,-0.0053532,-0.7504756,-0.1815525,-0.1703929,-0.4166951
0.5950000,0.5950000,0.5950000,-0.1770128,-0.0052838,-0.7407790,-0.1770128,-0.1663237,-0.4067623
0.5975000,0.5975000,0.5975000,-0.1725992,-0.0052156,-0.7312475,-0.1725992,-0.1623672,-0.3970768
0.6000000,0.6000000,0.6000000,-0.1683083,-0.0051486,-0.7218776,-0.1683083,-0.1585201,-0.3876334
0.6025000,0.6025000,0.6025000,-0.1641365,-0.0050828,-0.7126660,-0.1641365,-0.1547791,-0.3784270
0.6050000,0.6050000,0.6050000,-0.1600803,-0.0050181,-0.7036095,-0.1600803,-0.1511409,-0.3694523
0.6075000,0.6075000,0.6075000,-0.1561364,-0.0049545,-0.6947049,-0.1561364,-0.1476026,-0.3607042
0.6100000,0.6100000,0.6100000,-0.1523014,-0.0048920,-0.6859492,-0.1523014,-0.1441611,-0.3521774
0.6125000,0.6125000,0.6125000,-0.1485723,-0.0048306,-0.6773392,-0.1485723,-0.1408134,-0.3438669
0.6150000,0.6150000,0.6150000,-0.1449459,-0.0047702,-0.6688720,-0.1449459,-0.1375569,-0.3357674
0.6175000,0.6175000,0.6175000,-0.1414191,-0.0047108,-0.6605447,-0.1414191,-0.1343886,-0.3278740
0.6200000,0.6200000,0.6200000,-0.1379892,-0.0046523,-0.6523546,-0.1379892,-0.1313061,-0.3201816
0.6225000,0.6225000,0.6225000,-0.1346532,-0.0045949,-0.6442988,-0.1346532,-0.1283067,-0.3126853
0.6250000,0.6250000,0.6250000,-0.1314084,-0.0045384,-0.6363746,-0.1314084,-0.1253879,-0.3053803
0.6275000,0.6275000,0.6275000,-0.1282520,-0.0044828,-0.6285794,-0.1282520,-0.1225473,-0.2982618
0.6300000,0.6300000,0.6300000,-0.1251816,-0.0044281,-0.6209107,-0.1251816,-0.1197827,-0.2913250
0.6325000,0.6325000,0.6325000,-0.1221946,-0.0043743,-0.6133658,-0.1221946,-0.1170916,-0.2845654
0.6350000,0.6350000,0.6350000,-0.1192884,-0.0043213,-0.6059425,-0.1192884,-0.1144720,-0.2779783
0.6375000,0.6375000,0.6375000,-0.1164608,-0.0042692,-0.5986382,-0.1164608,-0.1119217,-0.2715594
0.6400000,0.6400000,0.6400000,-0.1137094,-0.0042180,-0.5914506,-0.1137094,-0.1094387,-0.2653043
0.6425000,0.6425000,0.6425000,-0.1110320,-0.0041675,-0.5843774,-0.1110320,-0.1070209,-0.2592086
0.6450000,0.6450000,0.6450000,-0.1084264,-0.0041178,-0.5774164,-0.1084264,-0.1046665,-0.2532684
0.6475000,0.6475000,0.6475000,-0.1058906,-0.0040690,-0.5705654,-0.1058906,-0.1023735,-0.2474794
0.6500000,0.6500000,0.6500000,-0.1034224,-0.0040209,-0.5638222,-0.1034224,-0.1001403,-0.2418376
0.6525000,0.6525000,0.6525000,-0.1010199,-0.0039735,-0.5571848,-0.1010199,-0.0979649,-0.2363392
0.6550000,0.6550000,0.6550000,-0.0986811,-0.0039268,-0.5506511,-0.0986811,-0.0958457,-0.2309804
0.6575000,0.6575000,0.6575000,-0.0964043,-0.0038809,-0.5442191,-0.0964043,-0.0937812,-0.2257574
0.6600000,0.6600000,0.6600000,-0.0941875,-0.0038357,-0.5378869,-0.0941875,-0.0917696,-0.2206666
0.6625000,0.6625000,0.6625000,-0.0920291,-0.0037912,-0.5316525,-0.0920291,-0.0898095,-0.2157045
0.6650000,0.6650000,0.6650000,-0.0899274,-0.0037474,-0.5255141,-0.0899274,-0.0878993,-0.2108677
0.6675000,0.6675000,0.6675000,-0.0878807,-0.0037042,-0.5194698,-0.0878807,-0.0860376,-0.2061527
0.6700000,0.6700000,0.6700000,-0.0858874,-0.0036617,-0.5135180,-0.0858874,-0.0842231,-0.2015563
0.6725000,0.6725000,0.6725000,-0.0839460,-0.0036198,-0.5076567,-0.0839460,-0.0824543,-0.1970753
0.6750000,0.6750000,0.6750000,-0.0820549,-0.0035786,-0.5018844,-0.0820549,-0.0807299,-0.1927067
0.6775000,0.6775000,0.6775000,-0.0802128,-0.0035379,-0.4961993,-0.0802128,-0.0790488,-0.1884473
0.6800000,0.6800000,0.6800000,-0.0784181,-0.0034979,-0.4905998,-0.0784181,-0.0774095,-0.1842943
0.6825000,0.6825000,0.6825000,-0.0766697,-0.0034585,-0.4850843,-0.0766697,-0.0758110,-0.1802447
0.6850000,0.6850000,0.6850000,-0.0749661,-0.0034197,-0.4796513,-0.0749661,-0.0742521,-0.1762958
0.6875000,0.6875000,0.6875000,-0.0733060,-0.0033814,-0.4742993,-0.0733060,-0.0727317,-0.1724449
0.6900000,0.6900000,0.6900000,-0.0716882,-0.0033437,-0.4690266,-0.0716882,-0.0712487,-0.1686894
0.6925000,0.6925000,0.6925000,-0.0701116,-0.0033065,-0.4638320,-0.0701116,-0.0698020,-0.1650266
0.6950000,0.6950000,0.6950000,-0.0685749,-0.0032699,-0.4587139,-0.0685749,-0.0683906,-0.1614541
0.6975000,0.6975000,0.6975000,-0.0670770,-0.0032338,-0.4536709,-0.0670770,-0.0670136,-0.1579695
0.7000000,0.7000000,0.7000000,-0.0656168,-0.0031983,-0.4487017,-0.0656168,-0.0656699,-0.1545703
0.7025000,0.7025000,0.7025000,-0.0641933,-0.0031632,-0.4438050,-0.0641933,-0.0643587,-0.1512543
0.7050000,0.7050000,0.7050000,-0.0628054,-0.0031287,-0.4389793,-0.0628054,-0.0630790,-0.1480193
0.7075000,0.7075000,0.7075000,-0.0614521,-0.0030947,-0.4342236,-0.0614521,-0.0618300,-0.1448631
0.7100000,0.7100000,0.7100000,-0.0601325,-0.0030611,-0.4295364,-0.0601325,-0.0606108,-0.1417836
0.7125000,0.7125000,0.7125000,-0.0588455,-0.0030280,-0.4249165,-0.0588455,-0.0594207,-0.1387787
0.7150000,0.7150000,0.7150000,-0.0575904,-0.0029954,-0.4203629,-0.0575904,-0.0582587,-0.1358465
0.7175000,0.7175000,0.7175000,-0.0563663,-0.0029633,-0.4158742,-0.0563663,-0.0571242,-0.1329849
0.7200000,0.7200000,0.7200000,-0.0551722,-0.0029316,-0.4114493,-0.0551722,-0.0560164,-0.1301922
0.7225000,0.7225000,0.7225000,-0.0540073,-0.0029004,-0.4070871,-0.0540073,-0.0549346,-0.1274665
0.7250000,0.7250000,0.7250000,-0.0528709,-0.0028696,-0.4027866,-0.0528709,-0.0538781,-0.1248060
0.7275000,0.7275000,0.7275000,-0.0517621,-0.0028392,-0.3985465,-0.0517621,-0.0528462,-0.1222090
0.7300000,0.7300000,0.7300000,-0.0506802,-0.0028092,-0.3943659,-0.0506802,-0.0518382,-0.1196738
0.7325000,0.7325000,0.7325000,-0.0496245,-0.0027797,-0.3902437,-0.0496245,-0.0508535,-0.1171988
0.7350000,0.7350000,0.7350000,-0.0485942,-0.0027506,-0.3861789,-0.0485942,-0.0498914,-0.1147824
0.7375000,0.7375000,0.7375000,-0.0475887,-0.0027219,-0.3821706,-0.0475887,-0.0489515,-0.1124230
0.7400000,0.7400000,0.7400000,-0.0466073,-0.0026935,-0.3782176,-0.0466073,-0.0480330,-0.1101192
0.7425000,0.7425000,0.7425000,-0.0456493,-0.0026656,-0.3743192,-0.0456493,-0.0471355,-0.1078695
0.7450000,0.7450000,0.7450000,-0.0447141,-0.0026381,-0.3704742,-0.0447141,-0.0462583,-0.1056724
0.7475000,0.7475000,0.7475000,-0.0438011,-0.0026109,-0.3666820,-0.0438011,-0.0454009,-0.1035267
0.7500000,0.7500000,0.7500000,-0.0429097,-0.0025841,-0.3629414,-0.0429097,-0.0445629,-0.1014310
0.7525000,0.7525000,0.7525000,-0.0420393,-0.0025576,-0.3592517,-0.0420393,-0.0437437,-0.0993839
0.7550000,0.7550000,0.7550000,-0.0411894,-0.0025315,-0.3556120,-0.0411894,-0.0429428,-0.0973843
0.7575000,0.7575000,0.7575000,-0.0403594,-0.0025058,-0.3520214,-0.0403594,-0.0421597,-0.0954308
0.7600000,0.7600000,0.7600000,-0.0395488,-0.0024804,-0.3484792,-0.0395488,-0.0413941,-0.0935223
0.7625000,0.7625000,0.7625000,-0.0387571,-0.0024554,-0.3449844,-0.0387571,-0.0406454,-0.0916577
0.7650000,0.7650000,0.7650000,-0.0379837,-0.0024306,-0.3415364,-0.0379837,-0.0399131,-0.0898358
0.7675000,0.7675000,0.7675000,-0.0372283,-0.0024063,-0.3381344,-0.0372283,-0.0391970,-0.0880554
0.7700000,0.7700000,0.7700000,-0.0364903,-0.0023822,-0.3347775,-0.0364903,-0.0384965,-0.0863157
0.7725000,0.7725000,0.7725000,-0.0357692,-0.0023584,-0.3314650,-0.0357692,-0.0378113,-0.0846154
0.7750000,0.7750000,0.7750000,-0.0350647,-0.0023350,-0.3281962,-0.0350647,-0.0371410,-0.0829536
0.7775000,0.7775000,0.7775000,-0.0343763,-0.0023119,-0.3249704,-0.0343763,-0.0364852,-0.0813294
0.7800000,0.7800000,0.7800000,-0.0337036,-0.0022891,-0.3217869,-0.0337036,-0.0358436,-0.0797418
0.7825000,0.7825000,0.7825000,-0.0330462,-0.0022665,-0.3186449,-0.0330462,-0.0352157,-0.0781898
0.7850000,0.7850000,0.7850000,-0.0324036,-0.0022443,-0.3155439,-0.0324036,-0.0346013,-0.0766725
0.7875000,0.7875000,0.7875000,-0.0317756,-0.0022224,-0.3124831,-0.0317756,-0.0340000,-0.0751891
0.7900000,0.7900000,0.7900000,-0.0311617,-0.0022007,-0.3094619,-0.0311617,-0.0334115,-0.0737388
0.7925000,0.7925000,0.7925000,-0.0305616,-0.0021793,-0.3064796,-0.0305616,-0.0328355,-0.0723207
0.7950000,0.7950000,0.7950000,-0.0299749,-0.0021582,-0.3035357,-0.0299749,-0.0322716,-0.0709339
0.7975000,0.7975000,0.7975000,-0.0294012,-0.0021374,-0.3006295,-0.0294012,-0.0317196,-0.0695778
0.8000000,0.8000000,0.8000000,-0.0288404,-0.0021168,-0.2977604,-0.0288404,-0.0311791,-0.0682515
0.8025000,0.8025000,0.8025000,-0.0282919,-0.0020965,-0.2949278,-0.0282919,-0.0306500,-0.0669543
0.8050000,0.8050000,0.8050000,-0.0277556,-0.0020765,-0.2921311,-0.0277556,-0.0301318,-0.0656856
0.8075000,0.8075000,0.8075000,-0.0272311,-0.0020567,-0.2893698,-0.0272311,-0.0296245,-0.0644445
0.8100000,0.8100000,0.8100000,-0.0267181,-0.0020371,-0.2866433,-0.0267181,-0.0291276,-0.0632304
0.8125000,0.8125000,0.8125000,-0.0262164,-0.0020178,-0.2839511,-0.0262164,-0.0286409,-0.0620427
0.8150000,0.8150000,0.8150000,-0.0257256,-0.0019988,-0.2812926,-0.0257256,-0.0281642,-0.0608807
0.8175000,0.8175000,0.8175000,-0.0252454,-0.0019800,-0.2786673,-0.0252454,-0.0276973,-0.0597437
0.8200000,0.8200000,0.8200000,-0.0247757,-0.0019614,-0.2760746,-0.0247757,-0.0272399,-0.0586313
0.8225000,0.8225000,0.8225000,-0.0243162,-0.0019430,-0.2735142,-0.0243162,-0.0267918,-0.0575427
0.8250000,0.8250000,0.8250000,-0.0238666,-0.0019249,-0.2709854,-0.0238666,-0.0263527,-0.0564773
0.8275000,0.8275000,0.8275000,-0.0234266,-0.0019070,-0.2684878,-0.0234266,-0.0259225,-0.0554348
0.8300000,0.8300000,0.8300000,-0.0229961,-0.0018893,-0.2660209,-0.0229961,-0.0255010,-0.0544144
0.8325000,0.8325000,0.8325000,-0.0225748,-0.0018719,-0.2635842,-0.0225748,-0.0250878,-0.0534156
0.8350000,0.8350000,0.8350000,-0.0221624,-0.0018546,-0.2611774,-0.0221624,-0.0246830,-0.0524380
0.8375000,0.8375000,0.8375000,-0.0217588,-0.0018376,-0.2587998,-0.0217588,-0.0242862,-0.0514810
0.8400000,0.8400000,0.8400000,-0.0213638,-0.0018208,-0.2564511,-0.0213638,-0.0238972,-0.0505441
0.8425000,0.8425000,0.8425000,-0.0209771,-0.0018041,-0.2541308,-0.0209771,-0.0235160,-0.0496269
0.8450000,0.8450000,0.8450000,-0.0205985,-0.0017877,-0.2518385,-0.0205985,-0.0231422,-0.0487289
0.8475000,0.8475000,0.8475000,-0.0202279,-0.0017715,-0.2495739,-0.0202279,-0.0227758,-0.0478496
0.8500000,0.8500000,0.8500000,-0.0198651,-0.0017555,-0.2473363,-0.0198651,-0.0224165,-0.0469886
0.8525000,0.8525000,0.8525000,-0.0195098,-0.0017396,-0.2451256,-0.0195098,-0.0220643,-0.0461455
0.8550000,0.8550000,0.8550000,-0.0191619,-0.0017240,-0.2429412,-0.0191619,-0.0217189,-0.0453198
0.8575000,0.8575000,0.8575000,-0.0188213,-0.0017085,-0.2407827,-0.0188213,-0.0213801,-0.0445111
0.8600000,0.8600000,0.8600000,-0.0184877,-0.0016932,-0.2386499,-0.0184877,-0.0210479,-0.0437191
0.8625000,0.8625000,0.8625000,-0.0181609,-0.0016782,-0.2365422,-0.0181609,-0.0207221,-0.0429433
0.8650000,0.8650000,0.8650000,-0.0178409,-0.0016632,-0.2344594,-0.0178409,-0.0204025,-0.0421834
0.8675000,0.8675000,0.8675000,-0.0175275,-0.0016485,-0.2324011,-0.0175275,-0.0200891,-0.0414390
0.8700000,0.8700000,0.8700000,-0.0172204,-0.0016339,-0.2303668,-0.0172204,-0.0197816,-0.0407097
0.8725000,0.8725000,0.8725000,-0.0169197,-0.0016195,-0.2283563,-0.0169197,-0.0194799,-0.0399952
0.8750000,0.8750000,0.8750000,-0.0166250,-0.0016053,-0.2263692,-0.0166250,-0.0191839,-0.0392952
0.8775000,0.8775000,0.8775000,-0.0163363,-0.0015913,-0.2244052,-0.0163363,-0.0188935,-0.0386094
0.8800000,0.8800000,0.8800000,-0.0160535,-0.0015774,-0.2224639,-0.0160535,-0.0186085,-0.0379373
0.8825000,0.8825000,0.8825000,-0.0157763,-0.0015636,-0.2205451,-0.0157763,-0.0183289,-0.0372787
0.8850000,0.8850000,0.8850000,-0.0155047,-0.0015501,-0.2186483,-0.0155047,-0.0180545,-0.0366332
0.8875000,0.8875000,0.8875000,-0.0152386,-0.0015366,-0.2167732,-0.0152386,-0.0177852,-0.0360007
0.8900000,0.8900000,0.8900000,-0.0149778,-0.0015234,-0.2149196,-0.0149778,-0.0175209,-0.0353808
0.8925000,0.8925000,0.8925000,-0.0147222,-0.0015103,-0.2130872,-0.0147222,-0.0172614,-0.0347731
0.8950000,0.8950000,0.8950000,-0.0144716,-0.0014973,-0.2112756,-0.0144716,-0.0170068,-0.0341775
0.8975000,0.8975000,0.8975000,-0.0142261,-0.0014845,-0.2094845,-0.0142261,-0.0167568,-0.0335936
0.9000000,0.9000000,0.9000000,-0.0139854,-0.0014718,-0.2077137,-0.0139854,-0.0165114,-0.0330213
0.9025000,0.9025000,0.9025000,-0.0137494,-0.0014593,-0.2059629,-0.0137494,-0.0162704,-0.0324602
0.9050000,0.9050000,0.9050000,-0.0135181,-0.0014469,-0.2042318,-0.0135181,-0.0160338,-0.0319100
0.9075000,0.9075000,0.9075000,-0.0132912,-0.0014347,-0.2025201,-0.0132912,-0.0158015,-0.0313706
0.9100000,0.9100000,0.9100000,-0.0130689,-0.0014226,-0.2008275,-0.0130689,-0.0155734,-0.0308417
0.9125000,0.9125000,0.9125000,-0.0128508,-0.0014106,-0.1991538,-0.0128508,-0.0153494,-0.0303231
0.9150000,0.9150000,0.9150000,-0.0126370,-0.0013988,-0.1974986,-0.0126370,-0.0151294,-0.0298146
0.9175000,0.9175000,0.9175000,-0.0124274,-0.0013871,-0.1958619,-0.0124274,-0.0149134,-0.0293158
0.9200000,0.9200000,0.9200000,-0.0122218,-0.0013755,-0.1942432,-0.0122218,-0.0147012,-0.0288267
0.9225000,0.9225000,0.9225000,-0.0120201,-0.0013640,-0.1926424,-0.0120201,-0.0144927,-0.0283470
0.9250000,0.9250000,0.9250000,-0.0118224,-0.0013527,-0.1910592,-0.0118224,-0.0142879,-0.0278764
0.9275000,0.9275000,0.9275000,-0.0116284,-0.0013415,-0.1894934,-0.0116284,-0.0140868,-0.0274149
0.9300000,0.9300000,0.9300000,-0.0114381,-0.0013305,-0.1879446,-0.0114381,-0.0138892,-0.0269622
0.9325000,0.9325000,0.9325000,-0.0112515,-0.0013195,-0.1864128,-0.0112515,-0.0136950,-0.0265180
0.9350000,0.9350000,0.9350000,-0.0110684,-0.0013087,-0.1848976,-0.0110684,-0.0135043,-0.0260823
0.9375000,0.9375000,0.9375000,-0.0108888,-0.0012980,-0.1833988,-0.0108888,-0.0133168,-0.0256549
0.9400000,0.9400000,0.9400000,-0.0107125,-0.0012874,-0.1819163,-0.0107125,-0.0131326,-0.0252355
0.9425000,0.9425000,0.9425000,-0.0105396,-0.0012769,-0.1804497,-0.0105396,-0.0129516,-0.0248240
0.9450000,0.9450000,0.9450000,-0.0103700,-0.0012666,-0.1789989,-0.0103700,-0.0127738,-0.0244202
0.9475000,0.9475000,0.9475000,-0.0102035,-0.0012563,-0.1775637,-0.0102035,-0.0125989,-0.0240240
0.9500000,0.9500000,0.9500000,-0.0100402,-0.0012462,-0.1761438,-0.0100402,-0.0124271,-0.0236352
0.9525000,0.9525000,0.9525000,-0.0098798,-0.0012361,-0.1747391,-0.0098798,-0.0122582,-0.0232536
0.9550000,0.9550000,0.9550000,-0.0097225,-0.0012262,-0.1733493,-0.0097225,-0.0120922,-0.0228791
0.9575000,0.9575000,0.9575000,-0.0095681,-0.0012164,-0.1719743,-0.0095681,-0.0119290,-0.0225115
0.9600000,0.9600000,0.9600000,-0.0094166,-0.0012067,-0.1706138,-0.0094166,-0.0117686,-0.0221508
0.9625000,0.9625000,0.9625000,-0.0092678,-0.0011971,-0.1692677,-0.0092678,-0.0116108,-0.0217967
0.9650000,0.9650000,0.9650000,-0.0091218,-0.0011876,-0.1679357,-0.0091218,-0.0114557,-0.0214491
0.9675000,0.9675000,0.9675000,-0.0089785,-0.0011781,-0.1666177,-0.0089785,-0.0113033,-0.0211079
0.9700000,0.9700000,0.9700000,-0.0088378,-0.0011688,-0.1653136,-0.0088378,-0.0111533,-0.0207729
0.9725000,0.9725000,0.9725000,-0.0086996,-0.0011596,-0.1640230,-0.0086996,-0.0110059,-0.0204440
0.9750000,0.9750000,0.9750000,-0.0085640,-0.0011505,-0.1627459,-0.0085640,-0.0108609,-0.0201212
0.9775000,0.9775000,0.9775000,-0.0084308,-0.0011415,-0.1614820,-0.0084308,-0.0107183,-0.0198041
0.9800000,0.9800000,0.9800000,-0.0083001,-0.0011326,-0.1602313,-0.0083001,-0.0105781,-0.0194929
0.9825000,0.9825000,0.9825000,-0.0081717,-0.0011237,-0.1589935,-0.0081717,-0.0104401,-0.0191872
0.9850000,0.9850000,0.9850000,-0.0080457,-0.0011150,-0.1577684,-0.0080457,-0.0103044,-0.0188871
0.9875000,0.9875000,0.9875000,-0.0079219,-0.0011064,-0.1565559,-0.0079219,-0.0101710,-0.0185923
0.9900000,0.9900000,0.9900000,-0.0078003,-0.0010978,-0.1553558,-0.0078003,-0.0100397,-0.0183029
0.9925000,0.9925000,0.9925000,-0.0076809,-0.0010893,-0.1541681,-0.0076809,-0.0099106,-0.0180186
0.9950000,0.9950000,0.9950000,-0.0075636,-0.0010809,-0.1529924,-0.0075636,-0.0097835,-0.0177394
0.9975000,0.9975000,0.9975000,-0.0074484,-0.0010726,-0.1518287,-0.0074484,-0.0096585,-0.0174651
1.0000000,1.0000000,1.0000000,-0.0073353,-0.0010644,-0.1506768,-0.0073353,-0.0095355,-0.0171958
1.0025000,1.0025000,1.0025000,-0.0072241,-0.0010563,-0.1495365,-0.0072241,-0.0094145,-0.0169312
1.0050000,1.0050000,1.0050000,-0.0071149,-0.0010483,-0.1484078,-0.0071149,-0.0092954,-0.0166712
1.0075000,1.0075000,1.0075000,-0.0070077,-0.0010403,-0.1472905,-0.0070077,-0.0091782,-0.0164159
1.0100000,1.0100000,1.0100000,-0.0069023,-0.0010324,-0.1461843,-0.0069023,-0.0090629,-0.0161650
1.0125000,1.0125000,1.0125000,-0.0067988,-0.0010246,-0.1450893,-0.0067988,-0.0089494,-0.0159186
1.0150000,1.0150000,1.0150000,-0.0066971,-0.0010169,-0.1440051,-0.0066971,-0.0088377,-0.0156764
1.0175000,1.0175000,1.0175000,-0.0065971,-0.0010092,-0.1429318,-0.0065971,-0.0087278,-0.0154385
1.0200000,1.0200000,1.0200000,-0.0064989,-0.0010017,-0.1418692,-0.0064989,-0.0086196,-0.0152047
1.0225000,1.0225000,1.0225000,-0.0064025,-0.0009942,-0.1408171,-0.0064025,-0.0085131,-0.0149750
1.0250000,1.0250000,1.0250000,-0.0063076,-0.0009867,-0.1397754,-0.0063076,-0.0084082,-0.0147493
1.0275000,1.0275000,1.0275000,-0.0062144,-0.0009794,-0.1387440,-0.0062144,-0.0083050,-0.0145275
1.0300000,1.0300000,1.0300000,-0.0061229,-0.0009721,-0.1377227,-0.0061229,-0.0082034,-0.0143095
1.0325000,1.0325000,1.0325000,-0.0060328,-0.0009649,-0.1367115,-0.0060328,-0.0081033,-0.0140952
1.0350000,1.0350000,1.0350000,-0.0059444,-0.0009578,-0.1357102,-0.0059444,-0.0080048,-0.0138846
1.0375000,1.0375000,1.0375000,-0.0058574,-0.0009507,-0.1347186,-0.0058574,-0.0079078,-0.0136777
1.0400000,1.0400000,1.0400000,-0.0057719,-0.0009437,-0.1337368,-0.0057719,-0.0078123,-0.0134742
1.0425000,1.0425000,1.0425000,-0.0056879,-0.0009368,-0.1327644,-0.0056879,-0.0077183,-0.0132742
1.0450000,1.0450000,1.0450000,-0.0056053,-0.0009300,-0.1318015,-0.0056053,-0.0076257,-0.0130777
1.0475000,1.0475000,1.0475000,-0.0055241,-0.0009232,-0.1308479,-0.0055241,-0.0075345,-0.0128844
1.0500000,1.0500000,1.0500000,-0.0054443,-0.0009165,-0.1299035,-0.0054443,-0.0074447,-0.0126945
1.0525000,1.0525000,1.0525000,-0.0053658,-0.0009098,-0.1289683,-0.0053658,-0.0073562,-0.0125077
1.0550000,1.0550000,1.0550000,-0.0052887,-0.0009032,-0.1280419,-0.0052887,-0.0072691,-0.0123241
1.0575000,1.0575000,1.0575000,-0.0052128,-0.0008967,-0.1271245,-0.0052128,-0.0071833,-0.0121436
1.0600000,1.0600000,1.0600000,-0.0051382,-0.0008902,-0.1262158,-0.0051382,-0.0070988,-0.0119661
1.0625000,1.0625000,1.0625000,-0.0050649,-0.0008838,-0.1253158,-0.0050649,-0.0070155,-0.0117915
1.0650000,1.0650000,1.0650000,-0.0049927,-0.0008775,-0.1244244,-0.0049927,-0.0069335,-0.0116199
1.0675000,1.0675000,1.0675000,-0.0049218,-0.0008712,-0.1235414,-0.0049218,-0.0068527,-0.0114512
1.0700000,1.0700000,1.0700000,-0.0048520,-0.0008650,-0.1226668,-0.0048520,-0.0067731,-0.0112852
1.0725000,1.0725000,1.0725000,-0.0047834,-0.0008588,-0.1218004,-0.0047834,-0.0066946,-0.0111220
1.0750000,1.0750000,1.0750000,-0.0047160,-0.0008527,-0.1209422,-0.0047160,-0.0066174,-0.0109615
1.0775000,1.0775000,1.0775000,-0.0046496,-0.0008467,-0.1200921,-0.0046496,-0.0065412,-0.0108036
1.0800000,1.0800000,1.0800000,-0.0045843,-0.0008407,-0.1192499,-0.0045843,-0.0064662,-0.0106484
1.0825000,1.0825000,1.0825000,-0.0045201,-0.0008347,-0.1184156,-0.0045201,-0.0063922,-0.0104956
1.0850000,1.0850000,1.0850000,-0.0044569,-0.0008289,-0.1175891,-0.0044569,-0.0063194,-0.0103454
1.0875000,1.0875000,1.0875000,-0.0043948,-0.0008230,-0.1167703,-0.0043948,-0.0062476,-0.0101977
1.0900000,1.0900000,1.0900000,-0.0043337,-0.0008173,-0.1159591,-0.0043337,-0.0061768,-0.0100523
1.0925000,1.0925000,1.0925000,-0.0042736,-0.0008116,-0.1151554,-0.0042736,-0.0061071,-0.0099094
1.0950000,1.0950000,1.0950000,-0.0042144,-0.0008059,-0.1143592,-0.0042144,-0.0060383,-0.0097687
1.0975000,1.0975000,1.0975000,-0.0041562,-0.0008003,-0.1135703,-0.0041562,-0.0059706,-0.0096303
1.1000000,1.1000000,1.1000000,-0.0040989,-0.0007947,-0.1127886,-0.0040989,-0.0059038,-0.0094942
1.1025000,1.1025000,1.1025000,-0.0040426,-0.0007892,-0.1120141,-0.0040426,-0.0058380,-0.0093602
1.1050000,1.1050000,1.1050000,-0.0039871,-0.0007838,-0.1112467,-0.0039871,-0.0057731,-0.0092285
1.1075000,1.1075000,1.1075000,-0.0039326,-0.0007784,-0.1104864,-0.0039326,-0.0057091,-0.0090988
1.1100000,1.1100000,1.1100000,-0.0038789,-0.0007730,-0.1097329,-0.0038789,-0.0056460,-0.0089712
1.1125000,1.1125000,1.1125000,-0.0038261,-0.0007677,-0.1089863,-0.0038261,-0.0055838,-0.0088456
1.1150000,1.1150000,1.1150000,-0.0037741,-0.0007625,-0.1082465,-0.0037741,-0.0055225,-0.0087221
1.1175000,1.1175000,1.1175000,-0.0037229,-0.0007573,-0.1075134,-0.0037229,-0.0054621,-0.0086005
1.1200000,1.1200000,1.1200000,-0.0036726,-0.0007521,-0.1067869,-0.0036726,-0.0054025,-0.0084809
1.1225000,1.1225000,1.1225000,-0.0036230,-0.0007470,-0.1060670,-0.0036230,-0.0053437,-0.0083631
1.1250000,1.1250000,1.1250000,-0.0035742,-0.0007419,-0.1053535,-0.0035742,-0.0052858,-0.0082472
1.1275000,1.1275000,1.1275000,-0.0035262,-0.0007369,-0.1046464,-0.0035262,-0.0052286,-0.0081331
1.1300000,1.1300000,1.1300000,-0.0034789,-0.0007319,-0.1039457,-0.0034789,-0.0051723,-0.0080209
1.1325000,1.1325000,1.1325000,-0.0034324,-0.0007270,-0.1032512,-0.0034324,-0.0051167,-0.0079104
1.1350000,1.1350000,1.1350000,-0.0033866,-0.0007221,-0.1025629,-0.0033866,-0.0050619,-0.0078016
1.1375000,1.1375000,1.1375000,-0.0033415,-0.0007173,-0.1018808,-0.0033415,-0.0050078,-0.0076945
1.1400000,1.1400000,1.1400000,-0.0032971,-0.0007125,-0.1012046,-0.0032971,-0.0049545,-0.0075891
1.1425000,1.1425000,1.1425000,-0.0032534,-0.0007077,-0.1005345,-0.0032534,-0.0049019,-0.0074854
1.1450000,1.1450000,1.1450000,-0.0032104,-0.0007030,-0.0998703,-0.0032104,-0.0048500,-0.0073832
1.1475000,1.1475000,1.1475000,-0.0031680,-0.0006983,-0.0992119,-0.0031680,-0.0047988,-0.0072827
1.1500000,1.1500000,1.1500000,-0.0031263,-0.0006937,-0.0985593,-0.0031263,-0.0047483,-0.0071837
1.1525000,1.1525000,1.1525000,-0.0030852,-0.0006891,-0.0979125,-0.0030852,-0.0046985,-0.0070862
1.1550000,1.1550000,1.1550000,-0.0030448,-0.0006846,-0.0972713,-0.0030448,-0.0046494,-0.0069903
1.1575000,1.1575000,1.1575000,-0.0030050,-0.0006801,-0.0966357,-0.0030050,-0.0046009,-0.0068958
1.1600000,1.1600000,1.1600000,-0.0029658,-0.0006756,-0.0960057,-0.0029658,-0.0045531,-0.0068027
1.1625000,1.1625000,1.1625000,-0.0029271,-0.0006712,-0.0953811,-0.0029271,-0.0045059,-0.0067111
1.1650000,1.1650000,1.1650000,-0.0028891,-0.0006668,-0.0947619,-0.0028891,-0.0044593,-0.0066209
1.1675000,1.1675000,1.1675000,-0.0028516,-0.0006624,-0.0941481,-0.0028516,-0.0044134,-0.0065321
1.1700000,1.1700000,1.1700000,-0.0028147,-0.0006581,-0.0935396,-0.0028147,-0.0043681,-0.0064446
1.1725000,1.1725000,1.1725000,-0.0027784,-0.0006538,-0.0929364,-0.0027784,-0.0043233,-0.0063584
1.1750000,1.1750000,1.1750000,-0.0027426,-0.0006496,-0.0923383,-0.0027426,-0.0042792,-0.0062736
1.1775000,1.1775000,1.1775000,-0.0027074,-0.0006454,-0.0917454,-0.0027074,-0.0042356,-0.0061900
1.1800000,1.1800000,1.1800000,-0.0026727,-0.0006412,-0.0911576,-0.0026727,-0.0041926,-0.0061077
1.1825000,1.1825000,1.1825000,-0.0026385,-0.0006371,-0.0905747,-0.0026385,-0.0041502,-0.0060266
1.1850000,1.1850000,1.1850000,-0.0026048,-0.0006330,-0.0899969,-0.0026048,-0.0041083,-0.0059468
1.1875000,1.1875000,1.1875000,-0.0025716,-0.0006289,-0.0894240,-0.0025716,-0.0040670,-0.0058682
1.1900000,1.1900000,1.1900000,-0.0025389,-0.0006249,-0.0888559,-0.0025389,-0.0040262,-0.0057907
1.1925000,1.1925000,1.1925000,-0.0025067,-0.0006209,-0.0882926,-0.0025067,-0.0039859,-0.0057144
1.1950000,1.1950000,1.1950000,-0.0024749,-0.0006170,-0.0877341,-0.0024749,-0.0039461,-0.0056392
1.1975000,1.1975000,1.1975000,-0.0024437,-0.0006130,-0.0871803,-0.0024437,-0.0039069,-0.0055652
1.2000000,1.2000000,1.2000000,-0.0024129,-0.0006091,-0.0866312,-0.0024129,-0.0038681,-0.0054922
1.2025000,1.2025000,1.2025000,-0.0023825,-0.0006053,-0.0860867,-0.0023825,-0.0038299,-0.0054203
1.2050000,1.2050000,1.2050000,-0.0023526,-0.0006015,-0.0855467,-0.0023526,-0.0037921,-0.0053495
1.2075000,1.2075000,1.2075000,-0.0023231,-0.0005977,-0.0850113,-0.0023231,-0.0037548,-0.0052798
1.2100000,1.2100000,1.2100000,-0.0022941,-0.0005939,-0.0844804,-0.0022941,-0.0037180,-0.0052110
1.2125000,1.2125000,1.2125000,-0.0022655,-0.0005902,-0.0839538,-0.0022655,-0.0036817,-0.0051433
1.2150000,1.2150000,1.2150000,-0.0022373,-0.0005865,-0.0834316,-0.0022373,-0.0036458,-0.0050766
1.2175000,1.2175000,1.2175000,-0.0022095,-0.0005828,-0.0829138,-0.0022095,-0.0036104,-0.0050108
1.2200000,1.2200000,1.2200000,-0.0021821,-0.0005792,-0.0824003,-0.0021821,-0.0035754,-0.0049461
1.2225000,1.2225000,1.2225000,-0.0021551,-0.0005756,-0.0818910,-0.0021551,-0.0035408,-0.0048822
1.2250000,1.2250000,1.2250000,-0.0021285,-0.0005720,-0.0813859,-0.0021285,-0.0035067,-0.0048193
1.2275000,1.2275000,1.2275000,-0.0021023,-0.0005685,-0.0808849,-0.0021023,-0.0034730,-0.0047573
1.2300000,1.2300000,1.2300000,-0.0020764,-0.0005649,-0.0803881,-0.0020764,-0.0034398,-0.0046962
1.2325000,1.2325000,1.2325000,-0.0020510,-0.0005615,-0.0798953,-0.0020510,-0.0034069,-0.0046360
1.2350000,1.2350000,1.2350000,-0.0020258,-0.0005580,-0.0794066,-0.0020258,-0.0033744,-0.0045767
1.2375000,1.2375000,1.2375000,-0.0020011,-0.0005546,-0.0789218,-0.0020011,-0.0033424,-0.0045182
1.2400000,1.2400000,1.2400000,-0.0019767,-0.0005512,-0.0784410,-0.0019767,-0.0033107,-0.0044605
1.2425000,1.2425000,1.2425000,-0.0019526,-0.0005478,-0.0779641,-0.0019526,-0.0032794,-0.0044037
1.2450000,1.2450000,1.2450000,-0.0019289,-0.0005444,-0.0774911,-0.0019289,-0.0032486,-0.0043477
1.2475000,1.2475000,1.2475000,-0.0019056,-0.0005411,-0.0770218,-0.0019056,-0.0032180,-0.0042925
1.2500000,1.2500000,1.2500000,-0.0018825,-0.0005378,-0.0765564,-0.0018825,-0.0031879,-0.0042381
1.2525000,1.2525000,1.2525000,-0.0018598,-0.0005346,-0.0760948,-0.0018598,-0.0031581,-0.0041845
1.2550000,1.2550000,1.2550000,-0.0018374,-0.0005313,-0.0756368,-0.0018374,-0.0031287,-0.0041316
1.2575000,1.2575000,1.2575000,-0.0018153,-0.0005281,-0.0751825,-0.0018153,-0.0030996,-0.0040795
1.2600000,1.2600000,1.2600000,-0.0017935,-0.0005249,-0.0747319,-0.0017935,-0.0030709,-0.0040281
1.2625000,1.2625000,1.2625000,-0.0017721,-0.0005218,-0.0742848,-0.0017721,-0.0030426,-0.0039775
1.2650000,1.2650000,1.2650000,-0.0017509,-0.0005186,-0.0738414,-0.0017509,-0.0030145,-0.0039275
1.2675000,1.2675000,1.2675000,-0.0017300,-0.0005155,-0.0734014,-0.0017300,-0.0029868,-0.0038783
1.2700000,1.2700000,1.2700000,-0.0017094,-0.0005124,-0.0729650,-0.0017094,-0.0029595,-0.0038298
1.2725000,1.2725000,1.2725000,-0.0016891,-0.0005094,-0.0725320,-0.0016891,-0.0029324,-0.0037819
1.2750000,1.2750000,1.2750000,-0.0016691,-0.0005063,-0.0721024,-0.0016691,-0.0029057,-0.0037347
1.2775000,1.2775000,1.2775000,-0.0016494,-0.0005033,-0.0716762,-0.0016494,-0.0028793,-0.0036882
1.2800000,1.2800000,1.2800000,-0.0016299,-0.0005003,-0.0712534,-0.0016299,-0.0028532,-0.0036423
1.2825000,1.2825000,1.2825000,-0.0016107,-0.0004974,-0.0708339,-0.0016107,-0.0028274,-0.0035971
1.2850000,1.2850000,1.2850000,-0.0015918,-0.0004944,-0.0704178,-0.0015918,-0.0028020,-0.0035525
1.2875000,1.2875000,1.2875000,-0.0015731,-0.0004915,-0.0700048,-0.0015731,-0.0027768,-0.0035085
1.2900000,1.2900000,1.2900000,-0.0015547,-0.0004886,-0.0695951,-0.0015547,-0.0027519,-0.0034651
1.2925000,1.2925000,1.2925000,-0.0015365,-0.0004857,-0.0691886,-0.0015365,-0.0027273,-0.0034223
1.2950000,1.2950000,1.2950000,-0.0015186,-0.0004829,-0.0687853,-0.0015186,-0.0027030,-0.0033801
1.2975000,1.2975000,1.2975000,-0.0015009,-0.0004800,-0.0683851,-0.0015009,-0.0026789,-0.0033385
1.3000000,1.3000000,1.3000000,-0.0014835,-0.0004772,-0.0679880,-0.0014835,-0.0026552,-0.0032975
1.3025000,1.3025000,1.3025000,-0.0014662,-0.0004745,-0.0675939,-0.0014662,-0.0026317,-0.0032571
1.3050000,1.3050000,1.3050000,-0.0014493,-0.0004717,-0.0672030,-0.0014493,-0.0026085,-0.0032171
1.3075000,1.3075000,1.3075000,-0.0014325,-0.0004690,-0.0668150,-0.0014325,-0.0025856,-0.0031778
1.3100000,1.3100000,1.3100000,-0.0014160,-0.0004662,-0.0664300,-0.0014160,-0.0025629,-0.0031390
1.3125000,1.3125000,1.3125000,-0.0013997,-0.0004635,-0.0660480,-0.0013997,-0.0025405,-0.0031007
1.3150000,1.3150000,1.3150000,-0.0013836,-0.0004609,-0.0656689,-0.0013836,-0.0025183,-0.0030629
1.3175000,1.3175000,1.3175000,-0.0013678,-0.0004582,-0.0652927,-0.0013678,-0.0024964,-0.0030256
1.3200000,1.3200000,1.3200000,-0.0013521,-0.0004556,-0.0649194,-0.0013521,-0.0024747,-0.0029889
1.3225000,1.3225000,1.3225000,-0.0013367,-0.0004529,-0.0645489,-0.0013367,-0.0024533,-0.0029526
1.3250000,1.3250000,1.3250000,-0.0013215,-0.0004503,-0.0641813,-0.0013215,-0.0024321,-0.0029168
1.3275000,1.3275000,1.3275000,-0.0013064,-0.0004478,-0.0638164,-0.0013064,-0.0024112,-0.0028816
1.3300000,1.3300000,1.3300000,-0.0012916,-0.0004452,-0.0634543,-0.0012916,-0.0023905,-0.0028468
1.3325000,1.3325000,1.3325000,-0.0012770,-0.0004427,-0.0630950,-0.0012770,-0.0023700,-0.0028124
1.3350000,1.3350000,1.3350000,-0.0012625,-0.0004402,-0.0627383,-0.0012625,-0.0023498,-0.0027785
1.3375000,1.3375000,1.3375000,-0.0012483,-0.0004377,-0.0623844,-0.0012483,-0.0023298,-0.0027451
1.3400000,1.3400000,1.3400000,-0.0012342,-0.0004352,-0.0620331,-0.0012342,-0.0023100,-0.0027121
1.3425000,1.3425000,1.3425000,-0.0012203,-0.0004327,-0.0616845,-0.0012203,-0.0022904,-0.0026796
1.3450000,1.3450000,1.3450000,-0.0012066,-0.0004303,-0.0613384,-0.0012066,-0.0022710,-0.0026475
1.3475000,1.3475000,1.3475000,-0.0011931,-0.0004279,-0.0609950,-0.0011931,-0.0022519,-0.0026158
1.3500000,1.3500000,1.3500000,-0.0011798,-0.0004254,-0.0606541,-0.0011798,-0.0022330,-0.0025846
1.3525000,1.3525000,1.3525000,-0.0011666,-0.0004231,-0.0603157,-0.0011666,-0.0022142,-0.0025537
1.3550000,1.3550000,1.3550000,-0.0011536,-0.0004207,-0.0599799,-0.0011536,-0.0021957,-0.0025233
1.3575000,1.3575000,1.3575000,-0.0011408,-0.0004183,-0.0596466,-0.0011408,-0.0021774,-0.0024933
1.3600000,1.3600000,1.3600000,-0.0011281,-0.0004160,-0.0593157,-0.0011281,-0.0021593,-0.0024637
1.3625000,1.3625000,1.3625000,-0.0011156,-0.0004137,-0.0589873,-0.0011156,-0.0021413,-0.0024344
1.3650000,1.3650000,1.3650000,-0.0011033,-0.0004114,-0.0586613,-0.0011033,-0.0021236,-0.0024056
1.3675000,1.3675000,1.3675000,-0.0010911,-0.0004091,-0.0583377,-0.0010911,-0.0021061,-0.0023771
1.3700000,1.3700000,1.3700000,-0.0010791,-0.0004068,-0.0580165,-0.0010791,-0.0020887,-0.0023490
1.3725000,1.3725000,1.3725000,-0.0010672,-0.0004046,-0.0576976,-0.0010672,-0.0020716,-0.0023213
1.3750000,1.3750000,1.3750000,-0.0010555,-0.0004024,-0.0573811,-0.0010555,-0.0020546,-0.0022939
1.3775000,1.3775000,1.3775000,-0.0010440,-0.0004001,-0.0570669,-0.0010440,-0.0020378,-0.0022669
1.3800000,1.3800000,1.3800000,-0.0010325,-0.0003979,-0.0567550,-0.0010325,-0.0020212,-0.0022402
1.3825000,1.3825000,1.3825000,-0.0010213,-0.0003958,-0.0564454,-0.0010213,-0.0020048,-0.0022139
1.3850000,1.3850000,1.3850000,-0.0010101,-0.0003936,-0.0561380,-0.0010101,-0.0019885,-0.0021879
1.3875000,1.3875000,1.3875000,-0.0009992,-0.0003914,-0.0558328,-0.0009992,-0.0019724,-0.0021623
1.3900000,1.3900000,1.3900000,-0.0009883,-0.0003893,-0.0555299,-0.0009883,-0.0019565,-0.0021370
1.3925000,1.3925000,1.3925000,-0.0009776,-0.0003872,-0.0552291,-0.0009776,-0.0019408,-0.0021120
1.3950000,1.3950000,1.3950000,-0.0009670,-0.0003851,-0.0549306,-0.0009670,-0.0019252,-0.0020873
1.3975000,1.3975000,1.3975000,-0.0009566,-0.0003830,-0.0546341,-0.0009566,-0.0019098,-0.0020630
1.4000000,1.4000000,1.4000000,-0.0009463,-0.0003809,-0.0543398,-0.0009463,-0.0018945,-0.0020390
1.4025000,1.4025000,1.4025000,-0.0009361,-0.0003788,-0.0540477,-0.0009361,-0.0018794,-0.0020153
1.4050000,1.4050000,1.4050000,-0.0009260,-0.0003768,-0.0537576,-0.0009260,-0.0018645,-0.0019918
1.4075000,1.4075000,1.4075000,-0.0009161,-0.0003748,-0.0534696,-0.0009161,-0.0018497,-0.0019687
1.4100000,1.4100000,1.4100000,-0.0009063,-0.0003728,-0.0531836,-0.0009063,-0.0018351,-0.0019459
1.4125000,1.4125000,1.4125000,-0.0008966,-0.0003707,-0.0528997,-0.0008966,-0.0018206,-0.0019234
1.4150000,1.4150000,1.4150000,-0.0008871,-0.0003688,-0.0526178,-0.0008871,-0.0018063,-0.0019011
1.4175000,1.4175000,1.4175000,-0.0008776,-0.0003668,-0.0523379,-0.0008776,-0.0017921,-0.0018792
1.4200000,1.4200000,1.4200000,-0.0008683,-0.0003648,-0.0520600,-0.0008683,-0.0017780,-0.0018575
1.4225000,1.4225000,1.4225000,-0.0008591,-0.0003629,-0.0517841,-0.0008591,-0.0017642,-0.0018361
1.4250000,1.4250000,1.4250000,-0.0008500,-0.0003610,-0.0515101,-0.0008500,-0.0017504,-0.0018150
1.4275000,1.4275000,1.4275000,-0.0008410,-0.0003590,-0.0512381,-0.0008410,-0.0017368,-0.0017941
1.4300000,1.4300000,1.4300000,-0.0008322,-0.0003571,-0.0509679,-0.0008322,-0.0017233,-0.0017735
1.4325000,1.4325000,1.4325000,-0.0008234,-0.0003552,-0.0506997,-0.0008234,-0.0017100,-0.0017532
1.4350000,1.4350000,1.4350000,-0.0008147,-0.0003534,-0.0504333,-0.0008147,-0.0016968,-0.0017331
1.4375000,1.4375000,1.4375000,-0.0008062,-0.0003515,-0.0501688,-0.0008062,-0.0016838,-0.0017132
1.4400000,1.4400000,1.4400000,-0.0007978,-0.0003497,-0.0499062,-0.0007978,-0.0016708,-0.0016936
1.4425000,1.4425000,1.4425000,-0.0007894,-0.0003478,-0.0496454,-0.0007894,-0.0016580,-0.0016743
1.4450000,1.4450000,1.4450000,-0.0007812,-0.0003460,-0.0493864,-0.0007812,-0.0016454,-0.0016552
1.4475000,1.4475000,1.4475000,-0.0007730,-0.0003442,-0.0491292,-0.0007730,-0.0016328,-0.0016363
1.4500000,1.4500000,1.4500000,-0.0007650,-0.0003424,-0.0488738,-0.0007650,-0.0016204,-0.0016177
1.4525000,1.4525000,1.4525000,-0.0007571,-0.0003406,-0.0486202,-0.0007571,-0.0016081,-0.0015993
1.4550000,1.4550000,1.4550000,-0.0007492,-0.0003388,-0.0483683,-0.0007492,-0.0015959,-0.0015812
1.4575000,1.4575000,1.4575000,-0.0007415,-0.0003371,-0.0481181,-0.0007415,-0.0015839,-0.0015632
1.4600000,1.4600000,1.4600000,-0.0007338,-0.0003353,-0.0478697,-0.0007338,-0.0015720,-0.0015455
1.4625000,1.4625000,1.4625000,-0.0007262,-0.0003336,-0.0476230,-0.0007262,-0.0015602,-0.0015280
1.4650000,1.4650000,1.4650000,-0.0007188,-0.0003318,-0.0473780,-0.0007188,-0.0015485,-0.0015107
1.4675000,1.4675000,1.4675000,-0.0007114,-0.0003301,-0.0471347,-0.0007114,-0.0015369,-0.0014936
1.4700000,1.4700000,1.4700000,-0.0007041,-0.0003284,-0.0468930,-0.0007041,-0.0015254,-0.0014768
1.4725000,1.4725000,1.4725000,-0.0006969,-0.0003267,-0.0466530,-0.0006969,-0.0015141,-0.0014601
1.4750000,1.4750000,1.4750000,-0.0006898,-0.0003251,-0.0464146,-0.0006898,-0.0015028,-0.0014437
1.4775000,1.4775000,1.4775000,-0.0006827,-0.0003234,-0.0461779,-0.0006827,-0.0014917,-0.0014274
1.4800000,1.4800000,1.4800000,-0.0006758,-0.0003217,-0.0459427,-0.0006758,-0.0014807,-0.0014114
1.4825000,1.4825000,1.4825000,-0.0006689,-0.0003201,-0.0457092,-0.0006689,-0.0014698,-0.0013955
1.4850000,1.4850000,1.4850000,-0.0006621,-0.0003185,-0.0454772,-0.0006621,-0.0014590,-0.0013799
1.4875000,1.4875000,1.4875000,-0.0006554,-0.0003168,-0.0452468,-0.0006554,-0.0014483,-0.0013644
1.4900000,1.4900000,1.4900000,-0.0006488,-0.0003152,-0.0450180,-0.0006488,-0.0014377,-0.0013491
1.4925000,1.4925000,1.4925000,-0.0006422,-0.0003136,-0.0447907,-0.0006422,-0.0014272,-0.0013340
1.4950000,1.4950000,1.4950000,-0.0006357,-0.0003120,-0.0445650,-0.0006357,-0.0014168,-0.0013191
1.4975000,1.4975000,1.4975000,-0.0006293,-0.0003105,-0.0443407,-0.0006293,-0.0014065,-0.0013044
1.5000000,1.5000000,1.5000000,-0.0006230,-0.0003089,-0.0441180,-0.0006230,-0.0013963,-0.0012898
1.5025000,1.5025000,1.5025000,-0.0006168,-0.0003073,-0.0438967,-0.0006168,-0.0013862,-0.0012755
1.5050000,1.5050000,1.5050000,-0.0006106,-0.0003058,-0.0436769,-0.0006106,-0.0013762,-0.0012613
1.5075000,1.5075000,1.5075000,-0.0006045,-0.0003043,-0.0434586,-0.0006045,-0.0013663,-0.0012472
1.5100000,1.5100000,1.5100000,-0.0005984,-0.0003027,-0.0432418,-0.0005984,-0.0013565,-0.0012334
1.5125000,1.5125000,1.5125000,-0.0005925,-0.0003012,-0.0430264,-0.0005925,-0.0013468,-0.0012197
1.5150000,1.5150000,1.5150000,-0.0005866,-0.0002997,-0.0428124,-0.0005866,-0.0013371,-0.0012061
1.5175000,1.5175000,1.5175000,-0.0005808,-0.0002982,-0.0425999,-0.0005808,-0.0013276,-0.0011928
1.5200000,1.5200000,1.5200000,-0.0005750,-0.0002967,-0.0423887,-0.0005750,-0.0013182,-0.0011795
1.5225000,1.5225000,1.5225000,-0.0005693,-0.0002952,-0.0421789,-0.0005693,-0.0013088,-0.0011665
1.5250000,1.5250000,1.5250000,-0.0005637,-0.0002938,-0.0419706,-0.0005637,-0.0012995,-0.0011536
1.5275000,1.5275000,1.5275000,-0.0005581,-0.0002923,-0.0417636,-0.0005581,-0.0012904,-0.0011409
1.5300000,1.5300000,1.5300000,-0.0005526,-0.0002909,-0.0415579,-0.0005526,-0.0012813,-0.0011283
1.5325000,1.5325000,1.5325000,-0.0005472,-0.0002894,-0.0413537,-0.0005472,-0.0012722,-0.0011158
1.5350000,1.5350000,1.5350000,-0.0005418,-0.0002880,-0.0411507,-0.0005418,-0.0012633,-0.0011035
1.5375000,1.5375000,1.5375000,-0.0005365,-0.0002866,-0.0409491,-0.0005365,-0.0012545,-0.0010914
1.5400000,1.5400000,1.5400000,-0.0005313,-0.0002852,-0.0407488,-0.0005313,-0.0012457,-0.0010794
1.5425000,1.5425000,1.5425000,-0.0005261,-0.0002838,-0.0405498,-0.0005261,-0.0012370,-0.0010675
1.5450000,1.5450000,1.5450000,-0.0005210,-0.0002824,-0.0403521,-0.0005210,-0.0012284,-0.0010558
1.5475000,1.5475000,1.5475000,-0.0005159,-0.0002810,-0.0401557,-0.0005159,-0.0012199,-0.0010442
1.5500000,1.5500000,1.5500000,-0.0005109,-0.0002796,-0.0399605,-0.0005109,-0.0012115,-0.0010327
1.5525000,1.5525000,1.5525000,-0.0005059,-0.0002783,-0.0397666,-0.0005059,-0.0012031,-0.0010214
1.5550000,1.5550000,1.5550000,-0.0005010,-0.0002769,-0.0395740,-0.0005010,-0.0011948,-0.0010102
1.5575000,1.5575000,1.5575000,-0.0004962,-0.0002756,-0.0393826,-0.0004962,-0.0011866,-0.0009992
1.5600000,1.5600000,1.5600000,-0.0004914,-0.0002742,-0.0391925,-0.0004914,-0.0011784,-0.0009883
1.5625000,1.5625000,1.5625000,-0.0004866,-0.0002729,-0.0390036,-0.0004866,-0.0011704,-0.0009775
1.5650000,1.5650000,1.5650000,-0.0004819,-0.0002716,-0.0388158,-0.0004819,-0.0011624,-0.0009668
1.5675000,1.5675000,1.5675000,-0.0004773,-0.0002703,-0.0386293,-0.0004773,-0.0011545,-0.0009562
1.5700000,1.5700000,1.5700000,-0.0004727,-0.0002690,-0.0384440,-0.0004727,-0.0011466,-0.0009458
1.5725000,1.5725000,1.5725000,-0.0004682,-0.0002677,-0.0382599,-0.0004682,-0.0011388,-0.0009355
1.5750000,1.5750000,1.5750000,-0.0004637,-0.0002664,-0.0380769,-0.0004637,-0.0011311,-0.0009253
1.5775000,1.5775000,1.5775000,-0.0004593,-0.0002651,-0.0378952,-0.0004593,-0.0011235,-0.0009153
1.5800000,1.5800000,1.5800000,-0.0004549,-0.0002639,-0.0377145,-0.0004549,-0.0011159,-0.0009053
1.5825000,1.5825000,1.5825000,-0.0004506,-0.0002626,-0.0375351,-0.0004506,-0.0011084,-0.0008955
1.5850000,1.5850000,1.5850000,-0.0004463,-0.0002613,-0.0373567,-0.0004463,-0.0011010,-0.0008858
1.5875000,1.5875000,1.5875000,-0.0004421,-0.0002601,-0.0371795,-0.0004421,-0.0010936,-0.0008762
1.5900000,1.5900000,1.5900000,-0.0004379,-0.0002589,-0.0370034,-0.0004379,-0.0010863,-0.0008667
1.5925000,1.5925000,1.5925000,-0.0004337,-0.0002576,-0.0368284,-0.0004337,-0.0010791,-0.0008573
1.5950000,1.5950000,1.5950000,-0.0004297,-0.0002564,-0.0366546,-0.0004297,-0.0010719,-0.0008480
1.5975000,1.5975000,1.5975000,-0.0004256,-0.0002552,-0.0364818,-0.0004256,-0.0010648,-0.0008388
