# r[nm],d[nm],daligned[nm],U(d)[kj/mol],V(d)[e/nm],Uslab(d)[kJ/mol],UC(d)[kJ/mol],UK(d)[kJ/mol],UCl(d)[kJ/mol]
0.1750000,0.1750000,0.1750000,1780.1578184,-0.0607263,421.1880921,1780.1578184,1124.6718978,inf
0.1775000,0.1775000,0.1775000,1566.7322726,-0.0634337,364.9913001,1566.7322726,988.7978051,inf
0.1800000,0.1800000,0.1800000,1380.1330437,-0.0658950,316.5252612,1380.1330437,870.0683717,inf
0.1825000,0.1825000,0.1825000,1216.8161231,-0.0681250,274.6560202,1216.8161231,766.2147759,inf
0.1850000,0.1850000,0.1850000,1073.7290164,-0.0701379,238.4278305,1073.7290164,675.2830916,inf
0.1875000,0.1875000,0.1875000,948.2394286,-0.0719469,207.0332313,948.2394286,595.5885863,inf
0.1900000,0.1900000,0.1900000,838.0747281,-0.0735646,179.7884561,838.0747281,525.6769263,inf
0.1925000,0.1925000,0.1925000,741.2704994,-0.0750030,156.1131515,741.2704994,464.2912076,inf
0.1950000,0.1950000,0.1950000,656.1267694,-0.0762733,135.5135823,656.1267694,410.3439047,inf
0.1975000,0.1975000,0.1975000,581.1707191,-0.0773860,117.5686712,581.1707191,362.8929758,inf
0.2000000,0.2000000,0.2000000,515.1248827,-0.0783513,101.9183807,515.1248827,321.1214850,inf
0.2025000,0.2025000,0.2025000,456.8799940,-0.0791786,88.2540661,456.8799940,284.3202036,inf
0.2050000,0.2050000,0.2050000,405.4717755,-0.0798769,76.3105200,405.4717755,251.8727372,1723.2983881
0.2075000,0.2075000,0.2075000,360.0610728,-0.0804547,65.8594611,360.0610728,223.2427981,1535.1105297
0.2100000,0.2100000,0.2100000,319.9168340,-0.0809198,56.7042204,319.9168340,197.9633002,1368.4286285
0.2125000,0.2125000,0.2125000,284.4015093,-0.0812799,48.6753746,284.4015093,175.6270049,1220.6666024
0.2150000,0.2150000,0.2150000,252.9585118,-0.0815420,41.6270812,252.9585118,155.8784886,1089.5657369
0.2175000,0.2175000,0.2175000,225.1014373,-0.0817127,35.4339138,225.1014373,138.4072374,973.1511599
0.2200000,0.2200000,0.2200000,200.4047856,-0.0817985,29.9880539,200.4047856,122.9417025,869.6943755
0.2225000,0.2225000,0.2225000,178.4959643,-0.0818052,25.1967704,178.4959643,109.2441792,777.6809745
0.2250000,0.2250000,0.2250000,159.0483918,-0.0817384,20.9801661,159.0483918,97.1063854,695.7827783
0.2275000,0.2275000,0.2275000,141.7755410,-0.0816034,17.2691981,141.7755410,86.3456389,622.8337788
0.2300000,0.2300000,0.2300000,126.4257892,-0.0814051,14.0039794,126.4257892,76.8015397,557.8093344
0.2325000,0.2325000,0.2325000,112.7779608,-0.0811483,11.1323529,112.7779608,68.3330811,499.8081634
0.2350000,0.2350000,0.2350000,100.6374635,-0.0808376,8.6087133,100.6374635,60.8161241,448.0367405
0.2375000,0.2375000,0.2375000,89.8329322,-0.0804774,6.3930415,89.8329322,54.1411896,401.7957615
0.2400000,0.2400000,0.2400000,80.2133054,-0.0800729,4.4501111,80.2133054,48.2115397,360.4683907
0.2425000,0.2425000,0.2425000,71.6452696,-0.0796306,2.7488332,71.6452696,42.9415326,323.5100445
0.2450000,0.2450000,0.2450000,64.0110173,-0.0791594,1.2617071,64.0110173,38.2552399,290.4395020
0.2475000,0.2475000,0.2475000,57.2062800,-0.0786717,-0.0356435,57.2062800,34.0853099,260.8311622
0.2500000,0.2500000,0.2500000,51.1386089,-0.0781851,-1.1648665,51.1386089,30.3720452,234.3082930
0.2525000,0.2525000,0.2525000,45.7258906,-0.0777226,-2.1452208,45.7258906,27.0626507,210.5371397
0.2550000,0.2550000,0.2550000,40.8950863,-0.0773115,-2.9938687,40.8950863,24.1105968,189.2217774
0.2575000,0.2575000,0.2575000,36.5811820,-0.0769817,-3.7261279,36.5811820,21.4750408,170.0996111
0.2600000,0.2600000,0.2600000,32.7263270,-0.0767621,-4.3556909,32.7263270,19.1202673,152.9374355
0.2625000,0.2625000,0.2625000,29.2791265,-0.0766764,-4.8948144,29.2791265,17.0151223,137.5279842
0.2650000,0.2650000,0.2650000,26.1940452,-0.0767393,-5.3544824,26.1940452,15.1324416,123.6869023
0.2675000,0.2675000,0.2675000,23.4308776,-0.0769532,-5.7445429,23.4308776,13.4484909,111.2500887
0.2700000,0.2700000,0.2700000,20.9542475,-0.0773081,-6.0738218,20.9542475,11.9424381,100.0713581
0.2725000,0.2725000,0.2725000,18.7331107,-0.0777824,-6.3502151,18.7331107,10.5958810,90.0203790
0.2750000,0.2750000,0.2750000,16.7402560,-0.0783463,-6.5807664,16.7402560,9.3924411,80.9808514
0.2775000,0.2775000,0.2775000,14.9518102,-0.0789657,-6.7717336,14.9518102,8.3174258,72.8488891
0.2800000,0.2800000,0.2800000,13.3467649,-0.0796062,-6.9286491,13.3467649,7.3575579,65.5315839
0.2825000,0.2825000,0.2825000,11.9065403,-0.0802365,-7.0563753,11.9065403,6.5007634,58.9457323
0.2850000,0.2850000,0.2850000,10.6145998,-0.0808303,-7.1591544,10.6145998,5.7360151,53.0167147
0.2875000,0.2875000,0.2875000,9.4561214,-0.0813670,-7.2406501,9.4561214,5.0532232,47.6775204
0.2900000,0.2900000,0.2900000,8.4177257,-0.0818313,-7.3039858,8.4177257,4.4431695,42.8679121
0.2925000,0.2925000,0.2925000,7.4872565,-0.0822122,-7.3517790,7.4872565,3.8974736,38.5337213
0.2950000,0.2950000,0.2950000,6.6536123,-0.0825021,-7.3861793,6.6536123,3.4085815,34.6262582
0.2975000,0.2975000,0.2975000,5.9066223,-0.0826950,-7.4089125,5.9066223,2.9697630,31.1018169
0.3000000,0.3000000,0.3000000,5.2369640,-0.0827864,-7.4213318,5.2369640,2.5751039,27.9212492
0.3025000,0.3025000,0.3025000,4.6361151,-0.0827727,-7.4244766,4.6361151,2.2194850,25.0495815
0.3050000,0.3050000,0.3050000,4.0963309,-0.0826513,-7.4191353,4.0963309,1.8985409,22.4556529
0.3075000,0.3075000,0.3075000,3.6106368,-0.0824216,-7.4059109,3.6106368,1.6085987,20.1117603
0.3100000,0.3100000,0.3100000,3.1728249,-0.0820848,-7.3852853,3.1728249,1.3465983,17.9933023
0.3125000,0.3125000,0.3125000,2.7774429,-0.0816454,-7.3576791,2.7774429,1.1100007,16.0784271
0.3150000,0.3150000,0.3150000,2.4197695,-0.0811105,-7.3235025,2.4197695,0.8966911,14.3476898
0.3175000,0.3175000,0.3175000,2.0957716,-0.0804900,-7.2831941,2.0957716,0.7048828,12.7837308
0.3200000,0.3200000,0.3200000,1.8020434,-0.0797955,-7.2372463,1.8020434,0.5330279,11.3709821
0.3225000,0.3225000,0.3225000,1.5357311,-0.0790402,-7.1862170,1.5357311,0.3797390,10.0954081
0.3250000,0.3250000,0.3250000,1.2944477,-0.0782375,-7.1307281,1.2944477,0.2437254,8.9442823
0.3275000,0.3275000,0.3275000,1.0761847,-0.0774006,-7.0714554,1.0761847,0.1237446,7.9060005
0.3300000,0.3300000,0.3300000,0.8792257,-0.0765427,-7.0091119,0.8792257,0.0185702,6.9699291
0.3325000,0.3325000,0.3325000,0.7020680,-0.0756763,-6.9444307,0.7020680,-0.0730257,6.1262853
0.3350000,0.3350000,0.3350000,0.5433543,-0.0748141,-6.8781493,0.5433543,-0.1522768,5.3660486
0.3375000,0.3375000,0.3375000,0.4018176,-0.0739686,-6.8109953,0.4018176,-0.2204177,4.6808995
0.3400000,0.3400000,0.3400000,0.2762405,-0.0731525,-6.7436687,0.2762405,-0.2786723,4.0631820
0.3425000,0.3425000,0.3425000,0.1654276,-0.0723786,-6.6768187,0.1654276,-0.3282386,3.5058833
0.3450000,0.3450000,0.3450000,0.0681907,-0.0716588,-6.6110137,0.0681907,-0.3702710,3.0026255
0.3475000,0.3475000,0.3475000,-0.0166562,-0.0710042,-6.5467105,-0.0166562,-0.4058655,2.5476622
0.3500000,0.3500000,0.3500000,-0.0902935,-0.0704239,-6.4842302,-0.0902935,-0.4360449,2.1358709
0.3525000,0.3525000,0.3525000,-0.1538874,-0.0699246,-6.4237468,-0.1538874,-0.4617498,1.7627393
0.3550000,0.3550000,0.3550000,-0.2085783,-0.0695097,-6.3652927,-0.2085783,-0.4838324,1.4243386
0.3575000,0.3575000,0.3575000,-0.2554682,-0.0691784,-6.3087812,-0.2554682,-0.5030547,1.1172835
0.3600000,0.3600000,0.3600000,-0.2956092,-0.0689256,-6.2540400,-0.2956092,-0.5200896,0.8386804
0.3625000,0.3625000,0.3625000,-0.3299935,-0.0687414,-6.2008462,-0.3299935,-0.5355235,0.5860652
0.3650000,0.3650000,0.3650000,-0.3595469,-0.0686106,-6.1489529,-0.3595469,-0.5498612,0.3573358
0.3675000,0.3675000,0.3675000,-0.3851247,-0.0685135,-6.0981011,-0.3851247,-0.5635302,0.1506830
0.3700000,0.3700000,0.3700000,-0.4075095,-0.0684265,-6.0480191,-0.4075095,-0.5768869,-0.0354752
0.3725000,0.3725000,0.3725000,-0.4274100,-0.0683233,-5.9984196,-0.4274100,-0.5902214,-0.2025532
0.3750000,0.3750000,0.3750000,-0.4454608,-0.0681768,-5.9490042,-0.4454608,-0.6037621,-0.3518478
0.3775000,0.3775000,0.3775000,-0.4622210,-0.0679618,-5.8994811,-0.4622210,-0.6176783,-0.4845784
0.3800000,0.3800000,0.3800000,-0.4781739,-0.0676573,-5.8495951,-0.4781739,-0.6320825,-0.6019161
0.3825000,0.3825000,0.3825000,-0.4937250,-0.0672490,-5.7991626,-0.4937250,-0.6470317,-0.7050029
0.3850000,0.3850000,0.3850000,-0.5092015,-0.0667315,-5.7481031,-0.5092015,-0.6625300,-0.7949619
0.3875000,0.3875000,0.3875000,-0.5248510,-0.0661087,-5.6964562,-0.5248510,-0.6785312,-0.8729011
0.3900000,0.3900000,0.3900000,-0.5408424,-0.0653940,-5.6443782,-0.5408424,-0.6949429,-0.9399107
0.3925000,0.3925000,0.3925000,-0.5572682,-0.0646085,-5.5921144,-0.5572682,-0.7116295,-0.9970585
0.3950000,0.3950000,0.3950000,-0.5741507,-0.0637791,-5.5399525,-0.5741507,-0.7284170,-1.0453839
0.3975000,0.3975000,0.3975000,-0.5914495,-0.0629351,-5.4881695,-0.5914495,-0.7450979,-1.0858918
0.4000000,0.4000000,0.4000000,-0.6090711,-0.0621058,-5.4369890,-0.6090711,-0.7614387,-1.1195483
0.4025000,0.4025000,0.4025000,-0.6268789,-0.0613170,-5.3865602,-0.6268789,-0.7771898,-1.1472773
0.4050000,0.4050000,0.4050000,-0.6447022,-0.0605899,-5.3369627,-0.6447022,-0.7920976,-1.1699586
0.4075000,0.4075000,0.4075000,-0.6623446,-0.0599389,-5.2882305,-0.6623446,-0.8059184,-1.1884264
0.4100000,0.4100000,0.4100000,-0.6795927,-0.0593720,-5.2403809,-0.6795927,-0.8184319,-1.2034670
0.4125000,0.4125000,0.4125000,-0.6962237,-0.0588907,-5.1934329,-0.6962237,-0.8294545,-1.2158154
0.4150000,0.4150000,0.4150000,-0.7120154,-0.0584906,-5.1474077,-0.7120154,-0.8388506,-1.2261496
0.4175000,0.4175000,0.4175000,-0.7267553,-0.0581627,-5.1023123,-0.7267553,-0.8465401,-1.2350831
0.4200000,0.4200000,0.4200000,-0.7402517,-0.0578944,-5.0581149,-0.7402517,-0.8525033,-1.2431551
0.4225000,0.4225000,0.4225000,-0.7523436,-0.0576701,-5.0147247,-0.7523436,-0.8567799,-1.2508213
0.4250000,0.4250000,0.4250000,-0.7629106,-0.0574725,-4.9719831,-0.7629106,-0.8594645,-1.2584452
0.4275000,0.4275000,0.4275000,-0.7718809,-0.0572824,-4.9296717,-0.7718809,-0.8606966,-1.2662930
0.4300000,0.4300000,0.4300000,-0.7792367,-0.0570798,-4.8875338,-0.7792367,-0.8606492,-1.2745327
0.4325000,0.4325000,0.4325000,-0.7850154,-0.0568439,-4.8453047,-0.7850154,-0.8595148,-1.2832384
0.4350000,0.4350000,0.4350000,-0.7893076,-0.0565539,-4.8027396,-0.7893076,-0.8574926,-1.2923988
0.4375000,0.4375000,0.4375000,-0.7922495,-0.0561899,-4.7596353,-0.7922495,-0.8547771,-1.3019301
0.4400000,0.4400000,0.4400000,-0.7940122,-0.0557336,-4.7158399,-0.7940122,-0.8515491,-1.3116901
0.4425000,0.4425000,0.4425000,-0.7947888,-0.0551696,-4.6712512,-0.7947888,-0.8479682,-1.3214929
0.4450000,0.4450000,0.4450000,-0.7947811,-0.0544864,-4.6258085,-0.7947811,-0.8441698,-1.3311243
0.4475000,0.4475000,0.4475000,-0.7941869,-0.0536769,-4.5794816,-0.7941869,-0.8402624,-1.3403549
0.4500000,0.4500000,0.4500000,-0.7931891,-0.0527390,-4.5322615,-0.7931891,-0.8363289,-1.3489524
0.4525000,0.4525000,0.4525000,-0.7919480,-0.0516752,-4.4841544,-0.7919480,-0.8324287,-1.3566933
0.4550000,0.4550000,0.4550000,-0.7905959,-0.0504922,-4.4351794,-0.7905959,-0.8286019,-1.3633730
0.4575000,0.4575000,0.4575000,-0.7892357,-0.0492001,-4.3853687,-0.7892357,-0.8248730,-1.3688154
0.4600000,0.4600000,0.4600000,-0.7879423,-0.0478110,-4.3347674,-0.7879423,-0.8212546,-1.3728819
0.4625000,0.4625000,0.4625000,-0.7867659,-0.0463379,-4.2834348,-0.7867659,-0.8177499,-1.3754790
0.4650000,0.4650000,0.4650000,-0.7857368,-0.0447935,-4.2314432,-0.7857368,-0.8143525,-1.3765640
0.4675000,0.4675000,0.4675000,-0.7848708,-0.0431898,-4.1788762,-0.7848708,-0.8110464,-1.3761483
0.4700000,0.4700000,0.4700000,-0.7841723,-0.0415375,-4.1258268,-0.7841723,-0.8078046,-1.3742968
0.4725000,0.4725000,0.4725000,-0.7836364,-0.0398465,-4.0723943,-0.7836364,-0.8045895,-1.3711239
0.4750000,0.4750000,0.4750000,-0.7832482,-0.0381265,-4.0186812,-0.7832482,-0.8013555,-1.3667857
0.4775000,0.4775000,0.4775000,-0.7829816,-0.0363874,-3.9647907,-0.7829816,-0.7980539,-1.3614687
0.4800000,0.4800000,0.4800000,-0.7827976,-0.0346406,-3.9108240,-0.7827976,-0.7946373,-1.3553773
0.4825000,0.4825000,0.4825000,-0.7826449,-0.0328984,-3.8568787,-0.7826449,-0.7910644,-1.3487197
0.4850000,0.4850000,0.4850000,-0.7824626,-0.0311741,-3.8030469,-0.7824626,-0.7873007,-1.3416958
0.4875000,0.4875000,0.4875000,-0.7821858,-0.0294810,-3.7494146,-0.7821858,-0.7833174,-1.3344855
0.4900000,0.4900000,0.4900000,-0.7817509,-0.0278313,-3.6960603,-0.7817509,-0.7790883,-1.3272426
0.4925000,0.4925000,0.4925000,-0.7810998,-0.0262353,-3.6430557,-0.7810998,-0.7745864,-1.3200904
0.4950000,0.4950000,0.4950000,-0.7801820,-0.0247009,-3.5904646,-0.7801820,-0.7697817,-1.3131229
0.4975000,0.4975000,0.4975000,-0.7789540,-0.0232335,-3.5383438,-0.7789540,-0.7646409,-1.3064077
0.5000000,0.5000000,0.5000000,-0.7773769,-0.0218360,-3.4867430,-0.7773769,-0.7591297,-1.2999905
0.5025000,0.5025000,0.5025000,-0.7754144,-0.0205092,-3.4357052,-0.7754144,-0.7532157,-1.2938994
0.5050000,0.5050000,0.5050000,-0.7730301,-0.0192527,-3.3852674,-0.7730301,-0.7468735,-1.2881469
0.5075000,0.5075000,0.5075000,-0.7701884,-0.0180647,-3.3354606,-0.7701884,-0.7400868,-1.2827313
0.5100000,0.5100000,0.5100000,-0.7668552,-0.0169431,-3.2863110,-0.7668552,-0.7328506,-1.2776357
0.5125000,0.5125000,0.5125000,-0.7630011,-0.0158850,-3.2378397,-0.7630011,-0.7251697,-1.2728278
0.5150000,0.5150000,0.5150000,-0.7586045,-0.0148872,-3.1900636,-0.7586045,-0.7170571,-1.2682604
0.5175000,0.5175000,0.5175000,-0.7536538,-0.0139463,-3.1429961,-0.7536538,-0.7085304,-1.2638730
0.5200000,0.5200000,0.5200000,-0.7481476,-0.0130587,-3.0966467,-0.7481476,-0.6996100,-1.2595949
0.5225000,0.5225000,0.5225000,-0.7420935,-0.0122210,-3.0510224,-0.7420935,-0.6903174,-1.2553485
0.5250000,0.5250000,0.5250000,-0.7355054,-0.0114305,-3.0061270,-0.7355054,-0.6806748,-1.2510527
0.5275000,0.5275000,0.5275000,-0.7284011,-0.0106854,-2.9619624,-0.7284011,-0.6707051,-1.2466249
0.5300000,0.5300000,0.5300000,-0.7208003,-0.0099848,-2.9185283,-0.7208003,-0.6604322,-1.2419834
0.5325000,0.5325000,0.5325000,-0.7127231,-0.0093285,-2.8758225,-0.7127231,-0.6498820,-1.2370485
0.5350000,0.5350000,0.5350000,-0.7041903,-0.0087171,-2.8338415,-0.7041903,-0.6390823,-1.2317442
0.5375000,0.5375000,0.5375000,-0.6952235,-0.0081511,-2.7925802,-0.6952235,-0.6280630,-1.2259996
0.5400000,0.5400000,0.5400000,-0.6858463,-0.0076311,-2.7520326,-0.6858463,-0.6168557,-1.2197512
0.5425000,0.5425000,0.5425000,-0.6760844,-0.0071574,-2.7121915,-0.6760844,-0.6054932,-1.2129446
0.5450000,0.5450000,0.5450000,-0.6659666,-0.0067297,-2.6730489,-0.6659666,-0.5940092,-1.2055371
0.5475000,0.5475000,0.5475000,-0.6555245,-0.0063472,-2.6345964,-0.6555245,-0.5824373,-1.1974981
0.5500000,0.5500000,0.5500000,-0.6447923,-0.0060083,-2.5968246,-0.6447923,-0.5708104,-1.1888096
0.5525000,0.5525000,0.5525000,-0.6338065,-0.0057111,-2.5597239,-0.6338065,-0.5591605,-1.1794649
0.5550000,0.5550000,0.5550000,-0.6226049,-0.0054533,-2.5232842,-0.6226049,-0.5475176,-1.1694663
0.5575000,0.5575000,0.5575000,-0.6112259,-0.0052321,-2.4874951,-0.6112259,-0.5359101,-1.1588229
0.5600000,0.5600000,0.5600000,-0.5997079,-0.0050445,-2.4523461,-0.5997079,-0.5243639,-1.1475485
0.5625000,0.5625000,0.5625000,-0.5880884,-0.0048876,-2.4178262,-0.5880884,-0.5129027,-1.1356600
0.5650000,0.5650000,0.5650000,-0.5764035,-0.0047582,-2.3839246,-0.5764035,-0.5015478,-1.1231764
0.5675000,0.5675000,0.5675000,-0.5646875,-0.0046534,-2.3506302,-0.5646875,-0.4903180,-1.1101192
0.5700000,0.5700000,0.5700000,-0.5529724,-0.0045702,-2.3179321,-0.5529724,-0.4792299,-1.0965120
0.5725000,0.5725000,0.5725000,-0.5412877,-0.0045060,-2.2858192,-0.5412877,-0.4682977,-1.0823814
0.5750000,0.5750000,0.5750000,-0.5296603,-0.0044583,-2.2542805,-0.5296603,-0.4575337,-1.0677575
0.5775000,0.5775000,0.5775000,-0.5181145,-0.0044246,-2.2233050,-0.5181145,-0.4469480,-1.0526739
0.5800000,0.5800000,0.5800000,-0.5066720,-0.0044029,-2.1928818,-0.5066720,-0.4365491,-1.0371677
0.5825000,0.5825000,0.5825000,-0.4953520,-0.0043913,-2.1630003,-0.4953520,-0.4263439,-1.0212794
0.5850000,0.5850000,0.5850000,-0.4841711,-0.0043880,-2.1336496,-0.4841711,-0.4163376,-1.0050519
0.5875000,0.5875000,0.5875000,-0.4731438,-0.0043916,-2.1048193,-0.4731438,-0.4065342,-0.9885305
0.5900000,0.5900000,0.5900000,-0.4622823,-0.0044007,-2.0764990,-0.4622823,-0.3969366,-0.9717613
0.5925000,0.5925000,0.5925000,-0.4515970,-0.0044141,-2.0486784,-0.4515970,-0.3875466,-0.9547910
0.5950000,0.5950000,0.5950000,-0.4410964,-0.0044309,-2.0213474,-0.4410964,-0.3783650,-0.9376660
0.5975000,0.5975000,0.5975000,-0.4307873,-0.0044501,-1.9944961,-0.4307873,-0.3693918,-0.9204313
0.6000000,0.6000000,0.6000000,-0.4206753,-0.0044709,-1.9681147,-0.4206753,-0.3606265,-0.9031305
0.6025000,0.6025000,0.6025000,-0.4107644,-0.0044928,-1.9421937,-0.4107644,-0.3520677,-0.8858051
0.6050000,0.6050000,0.6050000,-0.4010576,-0.0045152,-1.9167236,-0.4010576,-0.3437137,-0.8684938
0.6075000,0.6075000,0.6075000,-0.3915568,-0.0045376,-1.8916951,-0.3915568,-0.3355622,-0.8512330
0.6100000,0.6100000,0.6100000,-0.3822631,-0.0045596,-1.8670993,-0.3822631,-0.3276107,-0.8340559
0.6125000,0.6125000,0.6125000,-0.3731767,-0.0045810,-1.8429271,-0.3731767,-0.3198562,-0.8169927
0.6150000,0.6150000,0.6150000,-0.3642970,-0.0046014,-1.8191700,-0.3642970,-0.3122956,-0.8000709
0.6175000,0.6175000,0.6175000,-0.3556230,-0.0046206,-1.7958194,-0.3556230,-0.3049254,-0.7833148
0.6200000,0.6200000,0.6200000,-0.3471531,-0.0046386,-1.7728670,-0.3471531,-0.2977422,-0.7667462
0.6225000,0.6225000,0.6225000,-0.3388853,-0.0046550,-1.7503045,-0.3388853,-0.2907421,-0.7503839
0.6250000,0.6250000,0.6250000,-0.3308170,-0.0046699,-1.7281239,-0.3308170,-0.2839215,-0.7342445
0.6275000,0.6275000,0.6275000,-0.3229456,-0.0046832,-1.7063176,-0.3229456,-0.2772764,-0.7183421
0.6300000,0.6300000,0.6300000,-0.3152681,-0.0046949,-1.6848777,-0.3152681,-0.2708030,-0.7026885
0.6325000,0.6325000,0.6325000,-0.3077812,-0.0047048,-1.6637968,-0.3077812,-0.2644971,-0.6872936
0.6350000,0.6350000,0.6350000,-0.3004814,-0.0047130,-1.6430675,-0.3004814,-0.2583550,-0.6721656
0.6375000,0.6375000,0.6375000,-0.2933654,-0.0047195,-1.6226828,-0.2933654,-0.2523726,-0.6573109
0.6400000,0.6400000,0.6400000,-0.2864292,-0.0047244,-1.6026356,-0.2864292,-0.2465459,-0.6427344
0.6425000,0.6425000,0.6425000,-0.2796693,-0.0047275,-1.5829191,-0.2796693,-0.2408712,-0.6284396
0.6450000,0.6450000,0.6450000,-0.2730818,-0.0047291,-1.5635265,-0.2730818,-0.2353444,-0.6144289
0.6475000,0.6475000,0.6475000,-0.2666629,-0.0047290,-1.5444513,-0.2666629,-0.2299618,-0.6007037
0.6500000,0.6500000,0.6500000,-0.2604087,-0.0047274,-1.5256872,-0.2604087,-0.2247195,-0.5872641
0.6525000,0.6525000,0.6525000,-0.2543153,-0.0047243,-1.5072279,-0.2543153,-0.2196140,-0.5741099
0.6550000,0.6550000,0.6550000,-0.2483788,-0.0047198,-1.4890672,-0.2483788,-0.2146414,-0.5612395
0.6575000,0.6575000,0.6575000,-0.2425955,-0.0047138,-1.4711993,-0.2425955,-0.2097984,-0.5486513
0.6600000,0.6600000,0.6600000,-0.2369615,-0.0047065,-1.4536182,-0.2369615,-0.2050812,-0.5363428
0.6625000,0.6625000,0.6625000,-0.2314731,-0.0046979,-1.4363184,-0.2314731,-0.2004866,-0.5243109
0.6650000,0.6650000,0.6650000,-0.2261265,-0.0046881,-1.4192941,-0.2261265,-0.1960111,-0.5125525
0.6675000,0.6675000,0.6675000,-0.2209180,-0.0046772,-1.4025400,-0.2209180,-0.1916515,-0.5010637
0.6700000,0.6700000,0.6700000,-0.2158442,-0.0046651,-1.3860508,-0.2158442,-0.1874046,-0.4898407
0.6725000,0.6725000,0.6725000,-0.2109013,-0.0046519,-1.3698212,-0.2109013,-0.1832672,-0.4788791
0.6750000,0.6750000,0.6750000,-0.2060861,-0.0046378,-1.3538462,-0.2060861,-0.1792363,-0.4681745
0.6775000,0.6775000,0.6775000,-0.2013950,-0.0046226,-1.3381208,-0.2013950,-0.1753090,-0.4577224
0.6800000,0.6800000,0.6800000,-0.1968247,-0.0046066,-1.3226402,-0.1968247,-0.1714823,-0.4475179
0.6825000,0.6825000,0.6825000,-0.1923720,-0.0045897,-1.3073995,-0.1923720,-0.1677535,-0.4375564
0.6850000,0.6850000,0.6850000,-0.1880336,-0.0045720,-1.2923943,-0.1880336,-0.1641197,-0.4278327
0.6875000,0.6875000,0.6875000,-0.1838065,-0.0045536,-1.2776199,-0.1838065,-0.1605784,-0.4183422
0.6900000,0.6900000,0.6900000,-0.1796877,-0.0045344,-1.2630720,-0.1796877,-0.1571269,-0.4090796
0.6925000,0.6925000,0.6925000,-0.1756741,-0.0045146,-1.2487461,-0.1756741,-0.1537628,-0.4000401
0.6950000,0.6950000,0.6950000,-0.1717630,-0.0044941,-1.2346381,-0.1717630,-0.1504835,-0.3912187
0.6975000,0.6975000,0.6975000,-0.1679513,-0.0044731,-1.2207438,-0.1679513,-0.1472868,-0.3826105
0.7000000,0.7000000,0.7000000,-0.1642365,-0.0044515,-1.2070593,-0.1642365,-0.1441702,-0.3742104
0.7025000,0.7025000,0.7025000,-0.1606159,-0.0044294,-1.1935804,-0.1606159,-0.1411316,-0.3660137
0.7050000,0.7050000,0.7050000,-0.1570869,-0.0044068,-1.1803034,-0.1570869,-0.1381687,-0.3580156
0.7075000,0.7075000,0.7075000,-0.1536468,-0.0043838,-1.1672246,-0.1536468,-0.1352796,-0.3502112
0.7100000,0.7100000,0.7100000,-0.1502934,-0.0043604,-1.1543401,-0.1502934,-0.1324620,-0.3425959
0.7125000,0.7125000,0.7125000,-0.1470241,-0.0043366,-1.1416464,-0.1470241,-0.1297140,-0.3351650
0.7150000,0.7150000,0.7150000,-0.1438367,-0.0043125,-1.1291399,-0.1438367,-0.1270337,-0.3279141
0.7175000,0.7175000,0.7175000,-0.1407290,-0.0042880,-1.1168172,-0.1407290,-0.1244193,-0.3208386
0.7200000,0.7200000,0.7200000,-0.1376986,-0.0042633,-1.1046750,-0.1376986,-0.1218688,-0.3139342
0.7225000,0.7225000,0.7225000,-0.1347435,-0.0042383,-1.0927098,-0.1347435,-0.1193805,-0.3071965
0.7250000,0.7250000,0.7250000,-0.1318616,-0.0042131,-1.0809185,-0.1318616,-0.1169527,-0.3006215
0.7275000,0.7275000,0.7275000,-0.1290510,-0.0041876,-1.0692980,-0.1290510,-0.1145837,-0.2942049
0.7300000,0.7300000,0.7300000,-0.1263095,-0.0041620,-1.0578450,-0.1263095,-0.1122719,-0.2879427
0.7325000,0.7325000,0.7325000,-0.1236354,-0.0041362,-1.0465566,-0.1236354,-0.1100158,-0.2818310
0.7350000,0.7350000,0.7350000,-0.1210269,-0.0041103,-1.0354298,-0.1210269,-0.1078138,-0.2758660
0.7375000,0.7375000,0.7375000,-0.1184820,-0.0040842,-1.0244617,-0.1184820,-0.1056644,-0.2700438
0.7400000,0.7400000,0.7400000,-0.1159991,-0.0040580,-1.0136496,-0.1159991,-0.1035663,-0.2643609
0.7425000,0.7425000,0.7425000,-0.1135765,-0.0040317,-1.0029905,-0.1135765,-0.1015180,-0.2588136
0.7450000,0.7450000,0.7450000,-0.1112125,-0.0040054,-0.9924818,-0.1112125,-0.0995181,-0.2533984
0.7475000,0.7475000,0.7475000,-0.1089056,-0.0039790,-0.9821208,-0.1089056,-0.0975654,-0.2481120
0.7500000,0.7500000,0.7500000,-0.1066541,-0.0039525,-0.9719049,-0.1066541,-0.0956586,-0.2429510
0.7525000,0.7525000,0.7525000,-0.1044567,-0.0039260,-0.9618316,-0.1044567,-0.0937965,-0.2379121
0.7550000,0.7550000,0.7550000,-0.1023119,-0.0038995,-0.9518984,-0.1023119,-0.0919778,-0.2329923
0.7575000,0.7575000,0.7575000,-0.1002182,-0.0038730,-0.9421028,-0.1002182,-0.0902015,-0.2281884
0.7600000,0.7600000,0.7600000,-0.0981742,-0.0038465,-0.9324425,-0.0981742,-0.0884663,-0.2234975
0.7625000,0.7625000,0.7625000,-0.0961787,-0.0038201,-0.9229150,-0.0961787,-0.0867712,-0.2189166
0.7650000,0.7650000,0.7650000,-0.0942303,-0.0037936,-0.9135181,-0.0942303,-0.0851151,-0.2144429
0.7675000,0.7675000,0.7675000,-0.0923278,-0.0037672,-0.9042496,-0.0923278,-0.0834970,-0.2100737
0.7700000,0.7700000,0.7700000,-0.0904699,-0.0037409,-0.8951073,-0.0904699,-0.0819159,-0.2058062
0.7725000,0.7725000,0.7725000,-0.0886556,-0.0037145,-0.8860889,-0.0886556,-0.0803708,-0.2016378
0.7750000,0.7750000,0.7750000,-0.0868835,-0.0036883,-0.8771925,-0.0868835,-0.0788608,-0.1975660
0.7775000,0.7775000,0.7775000,-0.0851527,-0.0036622,-0.8684158,-0.0851527,-0.0773849,-0.1935883
0.7800000,0.7800000,0.7800000,-0.0834620,-0.0036361,-0.8597570,-0.0834620,-0.0759423,-0.1897023
0.7825000,0.7825000,0.7825000,-0.0818104,-0.0036101,-0.8512139,-0.0818104,-0.0745321,-0.1859056
0.7850000,0.7850000,0.7850000,-0.0801968,-0.0035842,-0.8427847,-0.0801968,-0.0731535,-0.1821960
0.7875000,0.7875000,0.7875000,-0.0786202,-0.0035584,-0.8344675,-0.0786202,-0.0718057,-0.1785712
0.7900000,0.7900000,0.7900000,-0.0770798,-0.0035327,-0.8262604,-0.0770798,-0.0704878,-0.1750291
0.7925000,0.7925000,0.7925000,-0.0755745,-0.0035071,-0.8181615,-0.0755745,-0.0691991,-0.1715675
0.7950000,0.7950000,0.7950000,-0.0741035,-0.0034817,-0.8101691,-0.0741035,-0.0679388,-0.1681845
0.7975000,0.7975000,0.7975000,-0.0726658,-0.0034563,-0.8022814,-0.0726658,-0.0667063,-0.1648780
0.8000000,0.8000000,0.8000000,-0.0712606,-0.0034311,-0.7944968,-0.0712606,-0.0655008,-0.1616461
0.8025000,0.8025000,0.8025000,-0.0698871,-0.0034060,-0.7868134,-0.0698871,-0.0643216,-0.1584869
0.8050000,0.8050000,0.8050000,-0.0685445,-0.0033811,-0.7792296,-0.0685445,-0.0631681,-0.1553985
0.8075000,0.8075000,0.8075000,-0.0672319,-0.0033563,-0.7717439,-0.0672319,-0.0620396,-0.1523793
0.8100000,0.8100000,0.8100000,-0.0659486,-0.0033316,-0.7643546,-0.0659486,-0.0609356,-0.1494274
0.8125000,0.8125000,0.8125000,-0.0646939,-0.0033070,-0.7570602,-0.0646939,-0.0598553,-0.1465412
0.8150000,0.8150000,0.8150000,-0.0634670,-0.0032827,-0.7498591,-0.0634670,-0.0587982,-0.1437190
0.8175000,0.8175000,0.8175000,-0.0622673,-0.0032584,-0.7427499,-0.0622673,-0.0577637,-0.1409593
0.8200000,0.8200000,0.8200000,-0.0610940,-0.0032343,-0.7357311,-0.0610940,-0.0567513,-0.1382604
0.8225000,0.8225000,0.8225000,-0.0599465,-0.0032104,-0.7288012,-0.0599465,-0.0557605,-0.1356209
0.8250000,0.8250000,0.8250000,-0.0588241,-0.0031866,-0.7219587,-0.0588241,-0.0547905,-0.1330393
0.8275000,0.8275000,0.8275000,-0.0577262,-0.0031630,-0.7152025,-0.0577262,-0.0538411,-0.1305142
0.8300000,0.8300000,0.8300000,-0.0566523,-0.0031396,-0.7085310,-0.0566523,-0.0529116,-0.1280441
0.8325000,0.8325000,0.8325000,-0.0556016,-0.0031163,-0.7019429,-0.0556016,-0.0520017,-0.1256278
0.8350000,0.8350000,0.8350000,-0.0545737,-0.0030931,-0.6954369,-0.0545737,-0.0511107,-0.1232639
0.8375000,0.8375000,0.8375000,-0.0535680,-0.0030701,-0.6890118,-0.0535680,-0.0502383,-0.1209511
0.8400000,0.8400000,0.8400000,-0.0525839,-0.0030473,-0.6826662,-0.0525839,-0.0493840,-0.1186882
0.8425000,0.8425000,0.8425000,-0.0516209,-0.0030247,-0.6763990,-0.0516209,-0.0485473,-0.1164739
0.8450000,0.8450000,0.8450000,-0.0506785,-0.0030022,-0.6702089,-0.0506785,-0.0477279,-0.1143072
0.8475000,0.8475000,0.8475000,-0.0497562,-0.0029799,-0.6640948,-0.0497562,-0.0469253,-0.1121868
0.8500000,0.8500000,0.8500000,-0.0488534,-0.0029577,-0.6580554,-0.0488534,-0.0461391,-0.1101115
0.8525000,0.8525000,0.8525000,-0.0479698,-0.0029357,-0.6520896,-0.0479698,-0.0453690,-0.1080804
0.8550000,0.8550000,0.8550000,-0.0471048,-0.0029139,-0.6461963,-0.0471048,-0.0446146,-0.1060924
0.8575000,0.8575000,0.8575000,-0.0462581,-0.0028922,-0.6403744,-0.0462581,-0.0438754,-0.1041464
0.8600000,0.8600000,0.8600000,-0.0454291,-0.0028707,-0.6346227,-0.0454291,-0.0431511,-0.1022414
0.8625000,0.8625000,0.8625000,-0.0446175,-0.0028494,-0.6289403,-0.0446175,-0.0424415,-0.1003765
0.8650000,0.8650000,0.8650000,-0.0438227,-0.0028282,-0.6233261,-0.0438227,-0.0417460,-0.0985507
0.8675000,0.8675000,0.8675000,-0.0430446,-0.0028072,-0.6177791,-0.0430446,-0.0410645,-0.0967630
0.8700000,0.8700000,0.8700000,-0.0422825,-0.0027864,-0.6122982,-0.0422825,-0.0403966,-0.0950126
0.8725000,0.8725000,0.8725000,-0.0415362,-0.0027658,-0.6068824,-0.0415362,-0.0397419,-0.0932986
0.8750000,0.8750000,0.8750000,-0.0408053,-0.0027453,-0.6015308,-0.0408053,-0.0391001,-0.0916202
0.8775000,0.8775000,0.8775000,-0.0400894,-0.0027249,-0.5962425,-0.0400894,-0.0384711,-0.0899764
0.8800000,0.8800000,0.8800000,-0.0393882,-0.0027047,-0.5910164,-0.0393882,-0.0378544,-0.0883665
0.8825000,0.8825000,0.8825000,-0.0387013,-0.0026847,-0.5858518,-0.0387013,-0.0372498,-0.0867897
0.8850000,0.8850000,0.8850000,-0.0380284,-0.0026649,-0.5807475,-0.0380284,-0.0366570,-0.0852452
0.8875000,0.8875000,0.8875000,-0.0373691,-0.0026452,-0.5757029,-0.0373691,-0.0360757,-0.0837323
0.8900000,0.8900000,0.8900000,-0.0367232,-0.0026257,-0.5707170,-0.0367232,-0.0355058,-0.0822503
0.8925000,0.8925000,0.8925000,-0.0360904,-0.0026063,-0.5657889,-0.0360904,-0.0349468,-0.0807983
0.8950000,0.8950000,0.8950000,-0.0354702,-0.0025871,-0.5609178,-0.0354702,-0.0343986,-0.0793758
0.8975000,0.8975000,0.8975000,-0.0348626,-0.0025681,-0.5561029,-0.0348626,-0.0338610,-0.0779821
0.9000000,0.9000000,0.9000000,-0.0342670,-0.0025492,-0.5513433,-0.0342670,-0.0333336,-0.0766164
0.9025000,0.9025000,0.9025000,-0.0336834,-0.0025305,-0.5466384,-0.0336834,-0.0328164,-0.0752783
0.9050000,0.9050000,0.9050000,-0.0331114,-0.0025119,-0.5419872,-0.0331114,-0.0323089,-0.0739669
0.9075000,0.9075000,0.9075000,-0.0325507,-0.0024935,-0.5373890,-0.0325507,-0.0318111,-0.0726818
0.9100000,0.9100000,0.9100000,-0.0320011,-0.0024753,-0.5328430,-0.0320011,-0.0313227,-0.0714223
0.9125000,0.9125000,0.9125000,-0.0314623,-0.0024572,-0.5283486,-0.0314623,-0.0308436,-0.0701878
0.9150000,0.9150000,0.9150000,-0.0309342,-0.0024392,-0.5239049,-0.0309342,-0.0303734,-0.0689778
0.9175000,0.9175000,0.9175000,-0.0304164,-0.0024215,-0.5195113,-0.0304164,-0.0299120,-0.0677918
0.9200000,0.9200000,0.9200000,-0.0299087,-0.0024038,-0.5151670,-0.0299087,-0.0294592,-0.0666291
0.9225000,0.9225000,0.9225000,-0.0294109,-0.0023863,-0.5108714,-0.0294109,-0.0290149,-0.0654894
0.9250000,0.9250000,0.9250000,-0.0289228,-0.0023690,-0.5066237,-0.0289228,-0.0285788,-0.0643719
0.9275000,0.9275000,0.9275000,-0.0284442,-0.0023518,-0.5024233,-0.0284442,-0.0281507,-0.0632764
0.9300000,0.9300000,0.9300000,-0.0279748,-0.0023348,-0.4982696,-0.0279748,-0.0277306,-0.0622022
0.9325000,0.9325000,0.9325000,-0.0275145,-0.0023179,-0.4941618,-0.0275145,-0.0273181,-0.0611490
0.9350000,0.9350000,0.9350000,-0.0270630,-0.0023011,-0.4900994,-0.0270630,-0.0269133,-0.0601161
0.9375000,0.9375000,0.9375000,-0.0266202,-0.0022845,-0.4860817,-0.0266202,-0.0265158,-0.0591033
0.9400000,0.9400000,0.9400000,-0.0261858,-0.0022680,-0.4821081,-0.0261858,-0.0261255,-0.0581100
0.9425000,0.9425000,0.9425000,-0.0257597,-0.0022517,-0.4781780,-0.0257597,-0.0257423,-0.0571359
0.9450000,0.9450000,0.9450000,-0.0253417,-0.0022355,-0.4742907,-0.0253417,-0.0253661,-0.0561804
0.9475000,0.9475000,0.9475000,-0.0249316,-0.0022195,-0.4704458,-0.0249316,-0.0249966,-0.0552433
0.9500000,0.9500000,0.9500000,-0.0245293,-0.0022036,-0.4666426,-0.0245293,-0.0246338,-0.0543241
0.9525000,0.9525000,0.9525000,-0.0241346,-0.0021878,-0.4628806,-0.0241346,-0.0242775,-0.0534224
0.9550000,0.9550000,0.9550000,-0.0237473,-0.0021722,-0.4591592,-0.0237473,-0.0239275,-0.0525378
0.9575000,0.9575000,0.9575000,-0.0233672,-0.0021567,-0.4554778,-0.0233672,-0.0235838,-0.0516700
0.9600000,0.9600000,0.9600000,-0.0229943,-0.0021413,-0.4518359,-0.0229943,-0.0232462,-0.0508186
0.9625000,0.9625000,0.9625000,-0.0226283,-0.0021261,-0.4482330,-0.0226283,-0.0229145,-0.0499832
0.9650000,0.9650000,0.9650000,-0.0222691,-0.0021110,-0.4446686,-0.0222691,-0.0225887,-0.0491636
0.9675000,0.9675000,0.9675000,-0.0219166,-0.0020960,-0.4411421,-0.0219166,-0.0222686,-0.0483593
0.9700000,0.9700000,0.9700000,-0.0215706,-0.0020812,-0.4376530,-0.0215706,-0.0219541,-0.0475701
0.9725000,0.9725000,0.9725000,-0.0212309,-0.0020665,-0.4342008,-0.0212309,-0.0216452,-0.0467956
0.9750000,0.9750000,0.9750000,-0.0208976,-0.0020519,-0.4307852,-0.0208976,-0.0213416,-0.0460355
0.9775000,0.9775000,0.9775000,-0.0205703,-0.0020375,-0.4274054,-0.0205703,-0.0210433,-0.0452896
0.9800000,0.9800000,0.9800000,-0.0202490,-0.0020232,-0.4240612,-0.0202490,-0.0207501,-0.0445574
0.9825000,0.9825000,0.9825000,-0.0199336,-0.0020090,-0.4207520,-0.0199336,-0.0204620,-0.0438388
0.9850000,0.9850000,0.9850000,-0.0196239,-0.0019949,-0.4174773,-0.0196239,-0.0201789,-0.0431335
0.9875000,0.9875000,0.9875000,-0.0193199,-0.0019809,-0.4142367,-0.0193199,-0.0199006,-0.0424410
0.9900000,0.9900000,0.9900000,-0.0190213,-0.0019671,-0.4110298,-0.0190213,-0.0196271,-0.0417613
0.9925000,0.9925000,0.9925000,-0.0187282,-0.0019534,-0.4078561,-0.0187282,-0.0193582,-0.0410941
0.9950000,0.9950000,0.9950000,-0.0184403,-0.0019398,-0.4047152,-0.0184403,-0.0190940,-0.0404390
0.9975000,0.9975000,0.9975000,-0.0181575,-0.0019263,-0.4016067,-0.0181575,-0.0188342,-0.0397958
1.0000000,1.0000000,1.0000000,-0.0178799,-0.0019129,-0.3985301,-0.0178799,-0.0185788,-0.0391643
1.0025000,1.0025000,1.0025000,-0.0176072,-0.0018997,-0.3954851,-0.0176072,-0.0183277,-0.0385442
1.0050000,1.0050000,1.0050000,-0.0173394,-0.0018865,-0.3924712,-0.0173394,-0.0180808,-0.0379353
1.0075000,1.0075000,1.0075000,-0.0170763,-0.0018735,-0.3894880,-0.0170763,-0.0178380,-0.0373374
1.0100000,1.0100000,1.0100000,-0.0168179,-0.0018606,-0.3865352,-0.0168179,-0.0175993,-0.0367503
1.0125000,1.0125000,1.0125000,-0.0165640,-0.0018478,-0.3836123,-0.0165640,-0.0173646,-0.0361736
1.0150000,1.0150000,1.0150000,-0.0163147,-0.0018351,-0.3807189,-0.0163147,-0.0171338,-0.0356073
1.0175000,1.0175000,1.0175000,-0.0160697,-0.0018226,-0.3778548,-0.0160697,-0.0169068,-0.0350511
1.0200000,1.0200000,1.0200000,-0.0158290,-0.0018101,-0.3750195,-0.0158290,-0.0166835,-0.0345048
1.0225000,1.0225000,1.0225000,-0.0155925,-0.0017977,-0.3722126,-0.0155925,-0.0164639,-0.0339682
1.0250000,1.0250000,1.0250000,-0.0153602,-0.0017855,-0.3694339,-0.0153602,-0.0162480,-0.0334411
1.0275000,1.0275000,1.0275000,-0.0151319,-0.0017733,-0.3666829,-0.0151319,-0.0160355,-0.0329233
1.0300000,1.0300000,1.0300000,-0.0149075,-0.0017613,-0.3639593,-0.0149075,-0.0158265,-0.0324147
1.0325000,1.0325000,1.0325000,-0.0146871,-0.0017494,-0.3612628,-0.0146871,-0.0156209,-0.0319150
1.0350000,1.0350000,1.0350000,-0.0144704,-0.0017375,-0.3585930,-0.0144704,-0.0154187,-0.0314240
1.0375000,1.0375000,1.0375000,-0.0142575,-0.0017258,-0.3559496,-0.0142575,-0.0152197,-0.0309417
1.0400000,1.0400000,1.0400000,-0.0140482,-0.0017141,-0.3533322,-0.0140482,-0.0150239,-0.0304677
1.0425000,1.0425000,1.0425000,-0.0138426,-0.0017026,-0.3507406,-0.0138426,-0.0148313,-0.0300021
1.0450000,1.0450000,1.0450000,-0.0136404,-0.0016912,-0.3481744,-0.0136404,-0.0146418,-0.0295445
1.0475000,1.0475000,1.0475000,-0.0134417,-0.0016798,-0.3456333,-0.0134417,-0.0144552,-0.0290948
1.0500000,1.0500000,1.0500000,-0.0132464,-0.0016686,-0.3431171,-0.0132464,-0.0142717,-0.0286530
1.0525000,1.0525000,1.0525000,-0.0130544,-0.0016574,-0.3406253,-0.0130544,-0.0140911,-0.0282187
1.0550000,1.0550000,1.0550000,-0.0128656,-0.0016464,-0.3381577,-0.0128656,-0.0139133,-0.0277919
1.0575000,1.0575000,1.0575000,-0.0126800,-0.0016354,-0.3357141,-0.0126800,-0.0137383,-0.0273725
1.0600000,1.0600000,1.0600000,-0.0124976,-0.0016245,-0.3332940,-0.0124976,-0.0135661,-0.0269603
1.0625000,1.0625000,1.0625000,-0.0123182,-0.0016138,-0.3308973,-0.0123182,-0.0133966,-0.0265550
1.0650000,1.0650000,1.0650000,-0.0121418,-0.0016031,-0.3285236,-0.0121418,-0.0132298,-0.0261568
1.0675000,1.0675000,1.0675000,-0.0119684,-0.0015925,-0.3261727,-0.0119684,-0.0130656,-0.0257652
1.0700000,1.0700000,1.0700000,-0.0117979,-0.0015820,-0.3238443,-0.0117979,-0.0129039,-0.0253804
1.0725000,1.0725000,1.0725000,-0.0116302,-0.0015716,-0.3215381,-0.0116302,-0.0127447,-0.0250020
1.0750000,1.0750000,1.0750000,-0.0114653,-0.0015612,-0.3192539,-0.0114653,-0.0125880,-0.0246301
1.0775000,1.0775000,1.0775000,-0.0113031,-0.0015510,-0.3169914,-0.0113031,-0.0124337,-0.0242644
1.0800000,1.0800000,1.0800000,-0.0111436,-0.0015408,-0.3147503,-0.0111436,-0.0122818,-0.0239049
1.0825000,1.0825000,1.0825000,-0.0109867,-0.0015308,-0.3125304,-0.0109867,-0.0121322,-0.0235514
1.0850000,1.0850000,1.0850000,-0.0108325,-0.0015208,-0.3103315,-0.0108325,-0.0119849,-0.0232038
1.0875000,1.0875000,1.0875000,-0.0106807,-0.0015109,-0.3081532,-0.0106807,-0.0118399,-0.0228621
1.0900000,1.0900000,1.0900000,-0.0105314,-0.0015011,-0.3059954,-0.0105314,-0.0116970,-0.0225260
1.0925000,1.0925000,1.0925000,-0.0103846,-0.0014913,-0.3038577,-0.0103846,-0.0115564,-0.0221955
1.0950000,1.0950000,1.0950000,-0.0102401,-0.0014817,-0.3017401,-0.0102401,-0.0114178,-0.0218706
1.0975000,1.0975000,1.0975000,-0.0100980,-0.0014721,-0.2996421,-0.0100980,-0.0112814,-0.0215510
1.1000000,1.1000000,1.1000000,-0.0099582,-0.0014626,-0.2975637,-0.0099582,-0.0111470,-0.0212366
1.1025000,1.1025000,1.1025000,-0.0098207,-0.0014532,-0.2955045,-0.0098207,-0.0110146,-0.0209275
1.1050000,1.1050000,1.1050000,-0.0096854,-0.0014438,-0.2934644,-0.0096854,-0.0108842,-0.0206235
1.1075000,1.1075000,1.1075000,-0.0095522,-0.0014346,-0.2914432,-0.0095522,-0.0107558,-0.0203244
1.1100000,1.1100000,1.1100000,-0.0094212,-0.0014254,-0.2894405,-0.0094212,-0.0106292,-0.0200302
1.1125000,1.1125000,1.1125000,-0.0092923,-0.0014163,-0.2874562,-0.0092923,-0.0105046,-0.0197409
1.1150000,1.1150000,1.1150000,-0.0091655,-0.0014072,-0.2854901,-0.0091655,-0.0103817,-0.0194563
1.1175000,1.1175000,1.1175000,-0.0090406,-0.0013983,-0.2835420,-0.0090406,-0.0102607,-0.0191763
1.1200000,1.1200000,1.1200000,-0.0089178,-0.0013894,-0.2816117,-0.0089178,-0.0101415,-0.0189008
1.1225000,1.1225000,1.1225000,-0.0087969,-0.0013806,-0.2796989,-0.0087969,-0.0100240,-0.0186298
1.1250000,1.1250000,1.1250000,-0.0086779,-0.0013718,-0.2778035,-0.0086779,-0.0099083,-0.0183632
1.1275000,1.1275000,1.1275000,-0.0085608,-0.0013631,-0.2759253,-0.0085608,-0.0097942,-0.0181009
1.1300000,1.1300000,1.1300000,-0.0084456,-0.0013545,-0.2740640,-0.0084456,-0.0096818,-0.0178429
1.1325000,1.1325000,1.1325000,-0.0083321,-0.0013460,-0.2722195,-0.0083321,-0.0095711,-0.0175889
1.1350000,1.1350000,1.1350000,-0.0082205,-0.0013376,-0.2703916,-0.0082205,-0.0094619,-0.0173391
1.1375000,1.1375000,1.1375000,-0.0081105,-0.0013292,-0.2685801,-0.0081105,-0.0093543,-0.0170932
1.1400000,1.1400000,1.1400000,-0.0080023,-0.0013208,-0.2667849,-0.0080023,-0.0092483,-0.0168513
1.1425000,1.1425000,1.1425000,-0.0078958,-0.0013126,-0.2650056,-0.0078958,-0.0091437,-0.0166132
1.1450000,1.1450000,1.1450000,-0.0077910,-0.0013044,-0.2632423,-0.0077910,-0.0090407,-0.0163789
1.1475000,1.1475000,1.1475000,-0.0076877,-0.0012963,-0.2614946,-0.0076877,-0.0089392,-0.0161483
1.1500000,1.1500000,1.1500000,-0.0075861,-0.0012882,-0.2597624,-0.0075861,-0.0088391,-0.0159214
1.1525000,1.1525000,1.1525000,-0.0074860,-0.0012802,-0.2580456,-0.0074860,-0.0087404,-0.0156981
1.1550000,1.1550000,1.1550000,-0.0073875,-0.0012723,-0.2563439,-0.0073875,-0.0086431,-0.0154782
1.1575000,1.1575000,1.1575000,-0.0072905,-0.0012644,-0.2546572,-0.0072905,-0.0085472,-0.0152619
1.1600000,1.1600000,1.1600000,-0.0071950,-0.0012566,-0.2529853,-0.0071950,-0.0084526,-0.0150489
1.1625000,1.1625000,1.1625000,-0.0071009,-0.0012489,-0.2513282,-0.0071009,-0.0083594,-0.0148393
1.1650000,1.1650000,1.1650000,-0.0070083,-0.0012412,-0.2496855,-0.0070083,-0.0082675,-0.0146329
1.1675000,1.1675000,1.1675000,-0.0069171,-0.0012336,-0.2480571,-0.0069171,-0.0081768,-0.0144298
1.1700000,1.1700000,1.1700000,-0.0068272,-0.0012260,-0.2464430,-0.0068272,-0.0080875,-0.0142298
1.1725000,1.1725000,1.1725000,-0.0067388,-0.0012185,-0.2448429,-0.0067388,-0.0079993,-0.0140330
1.1750000,1.1750000,1.1750000,-0.0066516,-0.0012111,-0.2432567,-0.0066516,-0.0079124,-0.0138392
1.1775000,1.1775000,1.1775000,-0.0065658,-0.0012037,-0.2416842,-0.0065658,-0.0078267,-0.0136484
1.1800000,1.1800000,1.1800000,-0.0064813,-0.0011964,-0.2401253,-0.0064813,-0.0077422,-0.0134605
1.1825000,1.1825000,1.1825000,-0.0063980,-0.0011891,-0.2385798,-0.0063980,-0.0076588,-0.0132756
1.1850000,1.1850000,1.1850000,-0.0063160,-0.0011819,-0.2370476,-0.0063160,-0.0075766,-0.0130934
1.1875000,1.1875000,1.1875000,-0.0062353,-0.0011748,-0.2355286,-0.0062353,-0.0074955,-0.0129141
1.1900000,1.1900000,1.1900000,-0.0061557,-0.0011677,-0.2340226,-0.0061557,-0.0074155,-0.0127376
1.1925000,1.1925000,1.1925000,-0.0060773,-0.0011607,-0.2325294,-0.0060773,-0.0073366,-0.0125637
1.1950000,1.1950000,1.1950000,-0.0060001,-0.0011537,-0.2310490,-0.0060001,-0.0072588,-0.0123925
1.1975000,1.1975000,1.1975000,-0.0059240,-0.0011468,-0.2295812,-0.0059240,-0.0071820,-0.0122239
1.2000000,1.2000000,1.2000000,-0.0058491,-0.0011399,-0.2281258,-0.0058491,-0.0071063,-0.0120578
1.2025000,1.2025000,1.2025000,-0.0057752,-0.0011331,-0.2266827,-0.0057752,-0.0070316,-0.0118943
1.2050000,1.2050000,1.2050000,-0.0057025,-0.0011263,-0.2252519,-0.0057025,-0.0069578,-0.0117333
1.2075000,1.2075000,1.2075000,-0.0056308,-0.0011196,-0.2238331,-0.0056308,-0.0068851,-0.0115746
1.2100000,1.2100000,1.2100000,-0.0055602,-0.0011129,-0.2224262,-0.0055602,-0.0068134,-0.0114184
1.2125000,1.2125000,1.2125000,-0.0054906,-0.0011063,-0.2210312,-0.0054906,-0.0067426,-0.0112646
1.2150000,1.2150000,1.2150000,-0.0054220,-0.0010998,-0.2196479,-0.0054220,-0.0066727,-0.0111130
1.2175000,1.2175000,1.2175000,-0.0053544,-0.0010933,-0.2182761,-0.0053544,-0.0066038,-0.0109637
1.2200000,1.2200000,1.2200000,-0.0052878,-0.0010868,-0.2169157,-0.0052878,-0.0065358,-0.0108167
1.2225000,1.2225000,1.2225000,-0.0052222,-0.0010804,-0.2155667,-0.0052222,-0.0064686,-0.0106718
1.2250000,1.2250000,1.2250000,-0.0051575,-0.0010741,-0.2142289,-0.0051575,-0.0064024,-0.0105291
1.2275000,1.2275000,1.2275000,-0.0050938,-0.0010677,-0.2129022,-0.0050938,-0.0063370,-0.0103886
1.2300000,1.2300000,1.2300000,-0.0050309,-0.0010615,-0.2115865,-0.0050309,-0.0062725,-0.0102501
1.2325000,1.2325000,1.2325000,-0.0049690,-0.0010553,-0.2102816,-0.0049690,-0.0062088,-0.0101137
1.2350000,1.2350000,1.2350000,-0.0049080,-0.0010491,-0.2089875,-0.0049080,-0.0061460,-0.0099793
1.2375000,1.2375000,1.2375000,-0.0048478,-0.0010430,-0.2077040,-0.0048478,-0.0060840,-0.0098469
1.2400000,1.2400000,1.2400000,-0.0047885,-0.0010369,-0.2064311,-0.0047885,-0.0060227,-0.0097164
1.2425000,1.2425000,1.2425000,-0.0047301,-0.0010309,-0.2051685,-0.0047301,-0.0059623,-0.0095878
1.2450000,1.2450000,1.2450000,-0.0046725,-0.0010249,-0.2039163,-0.0046725,-0.0059027,-0.0094612
1.2475000,1.2475000,1.2475000,-0.0046157,-0.0010190,-0.2026743,-0.0046157,-0.0058438,-0.0093364
1.2500000,1.2500000,1.2500000,-0.0045597,-0.0010131,-0.2014424,-0.0045597,-0.0057856,-0.0092134
1.2525000,1.2525000,1.2525000,-0.0045045,-0.0010073,-0.2002205,-0.0045045,-0.0057283,-0.0090922
1.2550000,1.2550000,1.2550000,-0.0044501,-0.0010015,-0.1990085,-0.0044501,-0.0056716,-0.0089728
1.2575000,1.2575000,1.2575000,-0.0043964,-0.0009957,-0.1978063,-0.0043964,-0.0056157,-0.0088552
1.2600000,1.2600000,1.2600000,-0.0043435,-0.0009900,-0.1966138,-0.0043435,-0.0055604,-0.0087392
1.2625000,1.2625000,1.2625000,-0.0042914,-0.0009843,-0.1954309,-0.0042914,-0.0055059,-0.0086249
1.2650000,1.2650000,1.2650000,-0.0042400,-0.0009787,-0.1942575,-0.0042400,-0.0054521,-0.0085123
1.2675000,1.2675000,1.2675000,-0.0041893,-0.0009731,-0.1930935,-0.0041893,-0.0053989,-0.0084013
1.2700000,1.2700000,1.2700000,-0.0041393,-0.0009676,-0.1919389,-0.0041393,-0.0053464,-0.0082919
1.2725000,1.2725000,1.2725000,-0.0040900,-0.0009621,-0.1907934,-0.0040900,-0.0052946,-0.0081841
1.2750000,1.2750000,1.2750000,-0.0040414,-0.0009566,-0.1896571,-0.0040414,-0.0052434,-0.0080778
1.2775000,1.2775000,1.2775000,-0.0039934,-0.0009512,-0.1885298,-0.0039934,-0.0051929,-0.0079730
1.2800000,1.2800000,1.2800000,-0.0039461,-0.0009458,-0.1874115,-0.0039461,-0.0051429,-0.0078698
1.2825000,1.2825000,1.2825000,-0.0038995,-0.0009405,-0.1863020,-0.0038995,-0.0050936,-0.0077680
1.2850000,1.2850000,1.2850000,-0.0038535,-0.0009352,-0.1852013,-0.0038535,-0.0050450,-0.0076677
1.2875000,1.2875000,1.2875000,-0.0038082,-0.0009299,-0.1841093,-0.0038082,-0.0049969,-0.0075688
1.2900000,1.2900000,1.2900000,-0.0037635,-0.0009247,-0.1830259,-0.0037635,-0.0049494,-0.0074713
1.2925000,1.2925000,1.2925000,-0.0037194,-0.0009195,-0.1819510,-0.0037194,-0.0049025,-0.0073752
1.2950000,1.2950000,1.2950000,-0.0036759,-0.0009144,-0.1808845,-0.0036759,-0.0048561,-0.0072805
1.2975000,1.2975000,1.2975000,-0.0036330,-0.0009093,-0.1798264,-0.0036330,-0.0048103,-0.0071871
1.3000000,1.3000000,1.3000000,-0.0035906,-0.0009042,-0.1787766,-0.0035906,-0.0047651,-0.0070950
1.3025000,1.3025000,1.3025000,-0.0035489,-0.0008992,-0.1777349,-0.0035489,-0.0047205,-0.0070042
1.3050000,1.3050000,1.3050000,-0.0035077,-0.0008942,-0.1767013,-0.0035077,-0.0046764,-0.0069147
1.3075000,1.3075000,1.3075000,-0.0034671,-0.0008892,-0.1756758,-0.0034671,-0.0046328,-0.0068265
1.3100000,1.3100000,1.3100000,-0.0034270,-0.0008843,-0.1746582,-0.0034270,-0.0045897,-0.0067394
1.3125000,1.3125000,1.3125000,-0.0033874,-0.0008794,-0.1736485,-0.0033874,-0.0045472,-0.0066536
1.3150000,1.3150000,1.3150000,-0.0033484,-0.0008745,-0.1726466,-0.0033484,-0.0045051,-0.0065691
1.3175000,1.3175000,1.3175000,-0.0033100,-0.0008697,-0.1716524,-0.0033100,-0.0044636,-0.0064856
1.3200000,1.3200000,1.3200000,-0.0032720,-0.0008649,-0.1706658,-0.0032720,-0.0044226,-0.0064034
1.3225000,1.3225000,1.3225000,-0.0032345,-0.0008602,-0.1696868,-0.0032345,-0.0043820,-0.0063223
1.3250000,1.3250000,1.3250000,-0.0031976,-0.0008555,-0.1687153,-0.0031976,-0.0043420,-0.0062423
1.3275000,1.3275000,1.3275000,-0.0031611,-0.0008508,-0.1677513,-0.0031611,-0.0043024,-0.0061634
1.3300000,1.3300000,1.3300000,-0.0031251,-0.0008461,-0.1667946,-0.0031251,-0.0042633,-0.0060856
1.3325000,1.3325000,1.3325000,-0.0030896,-0.0008415,-0.1658451,-0.0030896,-0.0042246,-0.0060089
1.3350000,1.3350000,1.3350000,-0.0030546,-0.0008370,-0.1649029,-0.0030546,-0.0041864,-0.0059333
1.3375000,1.3375000,1.3375000,-0.0030200,-0.0008324,-0.1639679,-0.0030200,-0.0041487,-0.0058587
1.3400000,1.3400000,1.3400000,-0.0029859,-0.0008279,-0.1630399,-0.0029859,-0.0041114,-0.0057851
1.3425000,1.3425000,1.3425000,-0.0029523,-0.0008234,-0.1621189,-0.0029523,-0.0040745,-0.0057125
1.3450000,1.3450000,1.3450000,-0.0029191,-0.0008190,-0.1612049,-0.0029191,-0.0040381,-0.0056409
1.3475000,1.3475000,1.3475000,-0.0028863,-0.0008145,-0.1602978,-0.0028863,-0.0040020,-0.0055703
1.3500000,1.3500000,1.3500000,-0.0028539,-0.0008102,-0.1593975,-0.0028539,-0.0039665,-0.0055007
1.3525000,1.3525000,1.3525000,-0.0028220,-0.0008058,-0.1585039,-0.0028220,-0.0039313,-0.0054320
1.3550000,1.3550000,1.3550000,-0.0027905,-0.0008015,-0.1576170,-0.0027905,-0.0038965,-0.0053642
1.3575000,1.3575000,1.3575000,-0.0027594,-0.0007972,-0.1567368,-0.0027594,-0.0038621,-0.0052974
1.3600000,1.3600000,1.3600000,-0.0027287,-0.0007929,-0.1558631,-0.0027287,-0.0038281,-0.0052314
1.3625000,1.3625000,1.3625000,-0.0026984,-0.0007887,-0.1549959,-0.0026984,-0.0037945,-0.0051664
1.3650000,1.3650000,1.3650000,-0.0026685,-0.0007845,-0.1541351,-0.0026685,-0.0037613,-0.0051023
1.3675000,1.3675000,1.3675000,-0.0026390,-0.0007803,-0.1532808,-0.0026390,-0.0037285,-0.0050390
1.3700000,1.3700000,1.3700000,-0.0026098,-0.0007762,-0.1524327,-0.0026098,-0.0036960,-0.0049765
1.3725000,1.3725000,1.3725000,-0.0025811,-0.0007720,-0.1515909,-0.0025811,-0.0036640,-0.0049149
1.3750000,1.3750000,1.3750000,-0.0025527,-0.0007679,-0.1507554,-0.0025527,-0.0036322,-0.0048541
1.3775000,1.3775000,1.3775000,-0.0025246,-0.0007639,-0.1499260,-0.0025246,-0.0036009,-0.0047942
1.3800000,1.3800000,1.3800000,-0.0024970,-0.0007599,-0.1491026,-0.0024970,-0.0035699,-0.0047350
1.3825000,1.3825000,1.3825000,-0.0024697,-0.0007559,-0.1482853,-0.0024697,-0.0035392,-0.0046767
1.3850000,1.3850000,1.3850000,-0.0024427,-0.0007519,-0.1474740,-0.0024427,-0.0035089,-0.0046191
1.3875000,1.3875000,1.3875000,-0.0024161,-0.0007479,-0.1466686,-0.0024161,-0.0034789,-0.0045623
1.3900000,1.3900000,1.3900000,-0.0023898,-0.0007440,-0.1458691,-0.0023898,-0.0034493,-0.0045062
1.3925000,1.3925000,1.3925000,-0.0023638,-0.0007401,-0.1450754,-0.0023638,-0.0034200,-0.0044509
1.3950000,1.3950000,1.3950000,-0.0023382,-0.0007362,-0.1442875,-0.0023382,-0.0033910,-0.0043963
1.3975000,1.3975000,1.3975000,-0.0023129,-0.0007324,-0.1435053,-0.0023129,-0.0033623,-0.0043424
1.4000000,1.4000000,1.4000000,-0.0022879,-0.0007286,-0.1427287,-0.0022879,-0.0033340,-0.0042893
1.4025000,1.4025000,1.4025000,-0.0022633,-0.0007248,-0.1419577,-0.0022633,-0.0033059,-0.0042368
1.4050000,1.4050000,1.4050000,-0.0022389,-0.0007210,-0.1411924,-0.0022389,-0.0032782,-0.0041851
1.4075000,1.4075000,1.4075000,-0.0022149,-0.0007173,-0.1404325,-0.0022149,-0.0032508,-0.0041340
1.4100000,1.4100000,1.4100000,-0.0021911,-0.0007136,-0.1396781,-0.0021911,-0.0032237,-0.0040836
1.4125000,1.4125000,1.4125000,-0.0021677,-0.0007099,-0.1389290,-0.0021677,-0.0031968,-0.0040339
1.4150000,1.4150000,1.4150000,-0.0021445,-0.0007063,-0.1381854,-0.0021445,-0.0031703,-0.0039848
1.4175000,1.4175000,1.4175000,-0.0021217,-0.0007026,-0.1374471,-0.0021217,-0.0031441,-0.0039363
1.4200000,1.4200000,1.4200000,-0.0020991,-0.0006990,-0.1367140,-0.0020991,-0.0031181,-0.0038885
1.4225000,1.4225000,1.4225000,-0.0020768,-0.0006954,-0.1359861,-0.0020768,-0.0030924,-0.0038413
1.4250000,1.4250000,1.4250000,-0.0020547,-0.0006919,-0.1352635,-0.0020547,-0.0030670,-0.0037948
1.4275000,1.4275000,1.4275000,-0.0020330,-0.0006883,-0.1345459,-0.0020330,-0.0030419,-0.0037488
1.4300000,1.4300000,1.4300000,-0.0020115,-0.0006848,-0.1338334,-0.0020115,-0.0030171,-0.0037034
1.4325000,1.4325000,1.4325000,-0.0019903,-0.0006813,-0.1331260,-0.0019903,-0.0029925,-0.0036586
1.4350000,1.4350000,1.4350000,-0.0019693,-0.0006778,-0.1324236,-0.0019693,-0.0029682,-0.0036144
1.4375000,1.4375000,1.4375000,-0.0019486,-0.0006744,-0.1317261,-0.0019486,-0.0029441,-0.0035708
1.4400000,1.4400000,1.4400000,-0.0019282,-0.0006710,-0.1310335,-0.0019282,-0.0029203,-0.0035277
1.4425000,1.4425000,1.4425000,-0.0019080,-0.0006676,-0.1303457,-0.0019080,-0.0028967,-0.0034852
1.4450000,1.4450000,1.4450000,-0.0018880,-0.0006642,-0.1296628,-0.0018880,-0.0028734,-0.0034432
1.4475000,1.4475000,1.4475000,-0.0018683,-0.0006609,-0.1289847,-0.0018683,-0.0028504,-0.0034018
1.4500000,1.4500000,1.4500000,-0.0018489,-0.0006575,-0.1283113,-0.0018489,-0.0028276,-0.0033609
1.4525000,1.4525000,1.4525000,-0.0018296,-0.0006542,-0.1276426,-0.0018296,-0.0028050,-0.0033205
1.4550000,1.4550000,1.4550000,-0.0018106,-0.0006509,-0.1269785,-0.0018106,-0.0027827,-0.0032807
1.4575000,1.4575000,1.4575000,-0.0017919,-0.0006477,-0.1263191,-0.0017919,-0.0027606,-0.0032413
1.4600000,1.4600000,1.4600000,-0.0017733,-0.0006444,-0.1256642,-0.0017733,-0.0027387,-0.0032025
1.4625000,1.4625000,1.4625000,-0.0017550,-0.0006412,-0.1250139,-0.0017550,-0.0027171,-0.0031641
1.4650000,1.4650000,1.4650000,-0.0017369,-0.0006380,-0.1243680,-0.0017369,-0.0026957,-0.0031263
1.4675000,1.4675000,1.4675000,-0.0017190,-0.0006348,-0.1237266,-0.0017190,-0.0026745,-0.0030889
1.4700000,1.4700000,1.4700000,-0.0017014,-0.0006317,-0.1230896,-0.0017014,-0.0026535,-0.0030520
1.4725000,1.4725000,1.4725000,-0.0016839,-0.0006285,-0.1224570,-0.0016839,-0.0026327,-0.0030155
1.4750000,1.4750000,1.4750000,-0.0016667,-0.0006254,-0.1218288,-0.0016667,-0.0026122,-0.0029796
1.4775000,1.4775000,1.4775000,-0.0016497,-0.0006223,-0.1212048,-0.0016497,-0.0025919,-0.0029440
1.4800000,1.4800000,1.4800000,-0.0016328,-0.0006192,-0.1205851,-0.0016328,-0.0025718,-0.0029090
1.4825000,1.4825000,1.4825000,-0.0016162,-0.0006162,-0.1199696,-0.0016162,-0.0025518,-0.0028743
1.4850000,1.4850000,1.4850000,-0.0015998,-0.0006132,-0.1193583,-0.0015998,-0.0025321,-0.0028401
1.4875000,1.4875000,1.4875000,-0.0015835,-0.0006101,-0.1187512,-0.0015835,-0.0025126,-0.0028064
1.4900000,1.4900000,1.4900000,-0.0015675,-0.0006071,-0.1181482,-0.0015675,-0.0024933,-0.0027730
1.4925000,1.4925000,1.4925000,-0.0015516,-0.0006042,-0.1175493,-0.0015516,-0.0024742,-0.0027401
1.4950000,1.4950000,1.4950000,-0.0015359,-0.0006012,-0.1169544,-0.0015359,-0.0024553,-0.0027076
1.4975000,1.4975000,1.4975000,-0.0015205,-0.0005983,-0.1163636,-0.0015205,-0.0024366,-0.0026755
1.5000000,1.5000000,1.5000000,-0.0015051,-0.0005953,-0.1157767,-0.0015051,-0.0024180,-0.0026438
1.5025000,1.5025000,1.5025000,-0.0014900,-0.0005924,-0.1151938,-0.0014900,-0.0023997,-0.0026124
1.5050000,1.5050000,1.5050000,-0.0014751,-0.0005896,-0.1146148,-0.0014751,-0.0023815,-0.0025815
1.5075000,1.5075000,1.5075000,-0.0014603,-0.0005867,-0.1140397,-0.0014603,-0.0023635,-0.0025510
1.5100000,1.5100000,1.5100000,-0.0014457,-0.0005839,-0.1134685,-0.0014457,-0.0023457,-0.0025208
1.5125000,1.5125000,1.5125000,-0.0014313,-0.0005810,-0.1129010,-0.0014313,-0.0023281,-0.0024910
1.5150000,1.5150000,1.5150000,-0.0014170,-0.0005782,-0.1123374,-0.0014170,-0.0023106,-0.0024616
1.5175000,1.5175000,1.5175000,-0.0014029,-0.0005754,-0.1117775,-0.0014029,-0.0022934,-0.0024326
1.5200000,1.5200000,1.5200000,-0.0013890,-0.0005727,-0.1112213,-0.0013890,-0.0022763,-0.0024039
1.5225000,1.5225000,1.5225000,-0.0013752,-0.0005699,-0.1106688,-0.0013752,-0.0022593,-0.0023755
1.5250000,1.5250000,1.5250000,-0.0013616,-0.0005672,-0.1101200,-0.0013616,-0.0022425,-0.0023475
1.5275000,1.5275000,1.5275000,-0.0013482,-0.0005644,-0.1095748,-0.0013482,-0.0022259,-0.0023199
1.5300000,1.5300000,1.5300000,-0.0013349,-0.0005617,-0.1090332,-0.0013349,-0.0022095,-0.0022926
1.5325000,1.5325000,1.5325000,-0.0013217,-0.0005590,-0.1084952,-0.0013217,-0.0021932,-0.0022656
1.5350000,1.5350000,1.5350000,-0.0013087,-0.0005564,-0.1079607,-0.0013087,-0.0021771,-0.0022390
1.5375000,1.5375000,1.5375000,-0.0012959,-0.0005537,-0.1074298,-0.0012959,-0.0021611,-0.0022127
1.5400000,1.5400000,1.5400000,-0.0012832,-0.0005511,-0.1069023,-0.0012832,-0.0021453,-0.0021867
1.5425000,1.5425000,1.5425000,-0.0012706,-0.0005485,-0.1063783,-0.0012706,-0.0021297,-0.0021610
1.5450000,1.5450000,1.5450000,-0.0012582,-0.0005459,-0.1058577,-0.0012582,-0.0021142,-0.0021356
1.5475000,1.5475000,1.5475000,-0.0012459,-0.0005433,-0.1053405,-0.0012459,-0.0020988,-0.0021106
1.5500000,1.5500000,1.5500000,-0.0012338,-0.0005407,-0.1048267,-0.0012338,-0.0020836,-0.0020858
1.5525000,1.5525000,1.5525000,-0.0012218,-0.0005382,-0.1043162,-0.0012218,-0.0020686,-0.0020614
1.5550000,1.5550000,1.5550000,-0.0012100,-0.0005356,-0.1038091,-0.0012100,-0.0020537,-0.0020372
1.5575000,1.5575000,1.5575000,-0.0011982,-0.0005331,-0.1033052,-0.0011982,-0.0020389,-0.0020133
1.5600000,1.5600000,1.5600000,-0.0011867,-0.0005306,-0.1028046,-0.0011867,-0.0020243,-0.0019898
1.5625000,1.5625000,1.5625000,-0.0011752,-0.0005281,-0.1023073,-0.0011752,-0.0020098,-0.0019665
1.5650000,1.5650000,1.5650000,-0.0011639,-0.0005256,-0.1018131,-0.0011639,-0.0019954,-0.0019435
1.5675000,1.5675000,1.5675000,-0.0011527,-0.0005232,-0.1013221,-0.0011527,-0.0019812,-0.0019208
1.5700000,1.5700000,1.5700000,-0.0011416,-0.0005207,-0.1008343,-0.0011416,-0.0019671,-0.0018983
1.5725000,1.5725000,1.5725000,-0.0011306,-0.0005183,-0.1003497,-0.0011306,-0.0019532,-0.0018761
1.5750000,1.5750000,1.5750000,-0.0011198,-0.0005159,-0.0998681,-0.0011198,-0.0019394,-0.0018542
1.5775000,1.5775000,1.5775000,-0.0011091,-0.0005135,-0.0993896,-0.0011091,-0.0019257,-0.0018325
1.5800000,1.5800000,1.5800000,-0.0010985,-0.0005111,-0.0989142,-0.0010985,-0.0019122,-0.0018111
1.5825000,1.5825000,1.5825000,-0.0010880,-0.0005087,-0.0984418,-0.0010880,-0.0018987,-0.0017900
1.5850000,1.5850000,1.5850000,-0.0010777,-0.0005064,-0.0979724,-0.0010777,-0.0018854,-0.0017691
1.5875000,1.5875000,1.5875000,-0.0010675,-0.0005040,-0.0975060,-0.0010675,-0.0018723,-0.0017485
1.5900000,1.5900000,1.5900000,-0.0010573,-0.0005017,-0.0970426,-0.0010573,-0.0018592,-0.0017281
1.5925000,1.5925000,1.5925000,-0.0010473,-0.0004994,-0.0965821,-0.0010473,-0.0018463,-0.0017079
1.5950000,1.5950000,1.5950000,-0.0010374,-0.0004971,-0.0961245,-0.0010374,-0.0018335,-0.0016880
1.5975000,1.5975000,1.5975000,-0.0010276,-0.0004948,-0.0956699,-0.0010276,-0.0018208,-0.0016683
