# r[nm],d[nm],daligned[nm],U(d)[kj/mol],V(d)[e/nm],Uslab(d)[kJ/mol],UC(d)[kJ/mol],UK(d)[kJ/mol],UCl(d)[kJ/mol]
0.1800000,0.1800000,0.1800000,1826.7428676,0.1386405,214.7283740,1826.7428676,1156.2018923,inf
0.1825000,0.1825000,0.1825000,1599.2761703,0.0917092,187.2488323,1599.2761703,1013.6618556,inf
0.1850000,0.1850000,0.1850000,1400.5083635,0.0880206,163.4847934,1400.5083635,887.1920656,inf
0.1875000,0.1875000,0.1875000,1228.0972980,0.0846398,142.9028954,1228.0972980,777.5461613,inf
0.1900000,0.1900000,0.1900000,1078.3164016,0.0815425,125.0514473,1078.3164016,682.3473956,inf
0.1925000,0.1925000,0.1925000,948.0011811,0.0787064,109.5468730,948.0011811,599.5702820,inf
0.1950000,0.1950000,0.1950000,834.4579480,0.0760807,96.0625300,834.4579480,527.4789493,inf
0.1975000,0.1975000,0.1975000,735.3752106,0.0731940,84.3195356,735.3752106,464.5445282,inf
0.2000000,0.2000000,0.2000000,648.6831065,0.0669806,74.0792901,648.6831065,409.3740965,inf
0.2025000,0.2025000,0.2025000,572.3722598,0.0501128,65.1374041,572.3722598,360.7763432,inf
0.2050000,0.2050000,0.2050000,504.7724225,0.0256766,57.3187417,504.7724225,317.9155189,inf
0.2075000,0.2075000,0.2075000,445.0307841,0.0075733,50.4733020,445.0307841,280.2191614,1856.7824274
0.2100000,0.2100000,0.2100000,392.5461250,-0.0026041,44.4727006,392.5461250,247.1657126,1639.1433186
0.2125000,0.2125000,0.2125000,346.5696229,-0.0085155,39.2070747,346.5696229,218.2281281,1448.0745417
0.2150000,0.2150000,0.2150000,306.3140229,-0.0123958,34.5823042,306.3140229,192.9021962,1280.6958860
0.2175000,0.2175000,0.2175000,271.0503586,-0.0152234,30.5175101,271.0503586,170.7296597,1133.8842315
0.2200000,0.2200000,0.2200000,240.1338426,-0.0174206,26.9428464,240.1338426,151.3050764,1004.9537509
0.2225000,0.2225000,0.2225000,213.0027938,-0.0191809,23.7976267,213.0027938,134.2741536,891.5913991
0.2250000,0.2250000,0.2250000,189.1703177,-0.0205989,21.0288126,189.1703177,119.3289514,791.8020863
0.2275000,0.2275000,0.2275000,168.2148512,-0.0217234,18.5898382,168.2148512,106.2023423,703.8623441
0.2300000,0.2300000,0.2300000,149.7713106,-0.0225809,16.4397047,149.7713106,94.6626353,626.2811232
0.2325000,0.2325000,0.2325000,133.5232623,-0.0231865,14.5422604,133.5232623,84.5086744,557.7665687
0.2350000,0.2350000,0.2350000,119.1961278,-0.0235512,12.8656084,119.1961278,75.5655199,497.1978149
0.2375000,0.2375000,0.2375000,106.5513166,-0.0236873,11.3816126,106.5513166,67.6807575,443.6009991
0.2400000,0.2400000,0.2400000,95.3811602,-0.0236146,10.0654966,95.3811602,60.7214423,396.1288309
0.2425000,0.2425000,0.2425000,85.5045544,-0.0233658,8.8955232,85.5045544,54.5716229,354.0431605
0.2450000,0.2450000,0.2450000,76.7632547,-0.0229912,7.8527275,76.7632547,49.1303182,316.7000819
0.2475000,0.2475000,0.2475000,69.0187909,-0.0225587,6.9206698,69.0187909,44.3097797,283.5371818
0.2500000,0.2500000,0.2500000,62.1499507,-0.0221482,6.0851779,62.1499507,40.0338894,254.0626068
0.2525000,0.2525000,0.2525000,56.0507302,-0.0218417,5.3340641,56.0507302,36.2366179,227.8456768
0.2550000,0.2550000,0.2550000,50.6286127,-0.0217100,4.6568178,50.6286127,32.8605493,204.5088103
0.2575000,0.2575000,0.2575000,45.8030257,-0.0218033,4.0442983,45.8030257,29.8555328,183.7205700
0.2600000,0.2600000,0.2600000,41.5038739,-0.0221454,3.4884709,41.5038739,27.1775214,165.1896585
0.2625000,0.2625000,0.2625000,37.6701107,-0.0227356,2.9822323,37.6701107,24.7876312,148.6597211
0.2650000,0.2650000,0.2650000,34.2483798,-0.0235539,2.5193430,34.2483798,22.6514182,133.9048334
0.2675000,0.2675000,0.2675000,31.1917863,-0.0245670,2.0944441,31.1917863,20.7383440,120.7255738
0.2700000,0.2700000,0.2700000,28.4588483,-0.0257341,1.7030887,28.4588483,19.0213864,108.9456125
0.2725000,0.2725000,0.2725000,26.0126563,-0.0270103,1.3417151,26.0126563,17.4767455,98.4087769
0.2750000,0.2750000,0.2750000,23.8202356,-0.0283502,1.0075174,23.8202356,16.0835937,88.9765671
0.2775000,0.2775000,0.2775000,21.8520895,-0.0297110,0.6982318,21.8520895,14.8238305,80.5260934
0.2800000,0.2800000,0.2800000,20.0818835,-0.0310566,0.4119058,20.0818835,13.6818177,72.9483838
0.2825000,0.2825000,0.2825000,18.4862225,-0.0323616,0.1467202,18.4862225,12.6440954,66.1469813
0.2850000,0.2850000,0.2850000,17.0444715,-0.0336139,-0.0991103,17.0444715,11.6990942,60.0367287
0.2875000,0.2875000,0.2875000,15.7385738,-0.0348141,-0.3273885,15.7385738,10.8368625,54.5426458
0.2900000,0.2900000,0.2900000,14.5528412,-0.0359735,-0.5399947,14.5528412,10.0488237,49.5988296
0.2925000,0.2925000,0.2925000,13.4737109,-0.0371080,-0.7389819,13.4737109,9.3275622,45.1473559
0.2950000,0.2950000,0.2950000,12.4894834,-0.0382334,-0.9266912,12.4894834,8.6666311,41.1371990
0.2975000,0.2975000,0.2975000,11.5900655,-0.0393603,-1.1058275,11.5900655,8.0603683,37.5232131
0.3000000,0.3000000,0.3000000,10.7667361,-0.0404926,-1.2794167,10.7667361,7.5037151,34.2652170
0.3025000,0.3025000,0.3025000,10.0119418,-0.0416267,-1.4505796,10.0119418,6.9920457,31.3272097
0.3050000,0.3050000,0.3050000,9.3191158,-0.0427519,-1.6221247,9.3191158,6.5210230,28.6767289
0.3075000,0.3075000,0.3075000,8.6825068,-0.0438496,-1.7960604,8.6825068,6.0864989,26.2843483
0.3100000,0.3100000,0.3100000,8.0970061,-0.0448884,-1.9731989,8.0970061,5.6844733,24.1233031
0.3125000,0.3125000,0.3125000,7.5579733,-0.0458182,-2.1530108,7.5579733,5.3111024,22.1692260
0.3150000,0.3150000,0.3150000,7.0610722,-0.0465620,-2.3337864,7.0610722,4.9627408,20.3999734
0.3175000,0.3175000,0.3175000,6.6021402,-0.0470121,-2.5130341,6.6021402,4.6359907,18.7955112
0.3200000,0.3200000,0.3200000,6.1771141,-0.0470334,-2.6879714,6.1771141,4.3277444,17.3378322
0.3225000,0.3225000,0.3225000,5.7820226,-0.0464776,-2.8559673,5.7820226,4.0352187,16.0108739
0.3250000,0.3250000,0.3250000,5.4130404,-0.0452079,-3.0148554,5.4130404,3.7559889,14.8004167
0.3275000,0.3275000,0.3275000,5.0665805,-0.0431317,-3.1630959,5.0665805,3.4880317,13.6939537
0.3300000,0.3300000,0.3300000,4.7393964,-0.0402323,-3.2998081,4.7393964,3.2297691,12.6805370
0.3325000,0.3325000,0.3325000,4.4286670,-0.0365911,-3.4247079,4.4286670,2.9801006,11.7506127
0.3350000,0.3350000,0.3350000,4.1320508,-0.0323914,-3.5379830,4.1320508,2.7384013,10.8958576
0.3375000,0.3375000,0.3375000,3.8477049,-0.0279008,-3.6401395,3.8477049,2.5044767,10.1090287
0.3400000,0.3400000,0.3400000,3.5742738,-0.0234356,-3.7318466,3.5742738,2.2784759,9.3838228
0.3425000,0.3425000,0.3425000,3.3108530,-0.0193154,-3.8138084,3.3108530,2.0607800,8.7147433
0.3450000,0.3450000,0.3450000,3.0569314,-0.0158193,-3.8866778,3.0569314,1.8518878,8.0969626
0.3475000,0.3475000,0.3475000,2.8123176,-0.0131537,-3.9510187,2.8123176,1.6523170,7.5261766
0.3500000,0.3500000,0.3500000,2.5770550,-0.0114367,-4.0073065,2.5770550,1.4625327,6.9984515
0.3525000,0.3525000,0.3525000,2.3513357,-0.0106981,-4.0559523,2.3513357,1.2829026,6.5100766
0.3550000,0.3550000,0.3550000,2.1354189,-0.0108921,-4.0973345,2.1354189,1.1136736,6.0574408
0.3575000,0.3575000,0.3575000,1.9295655,-0.0119159,-4.1318242,1.9295655,0.9549632,5.6369535
0.3600000,0.3600000,0.3600000,1.7339900,-0.0136299,-4.1597989,1.7339900,0.8067573,5.2450251
0.3625000,0.3625000,0.3625000,1.5488313,-0.0158755,-4.1816413,1.5488313,0.6689137,4.8781073
0.3650000,0.3650000,0.3650000,1.3741392,-0.0184902,-4.1977300,1.3741392,0.5411681,4.5327845
0.3675000,0.3675000,0.3675000,1.2098706,-0.0213184,-4.2084257,1.2098706,0.4231484,4.2058940
0.3700000,0.3700000,0.3700000,1.0558911,-0.0242191,-4.2140619,1.0558911,0.3143933,3.8946485
0.3725000,0.3725000,0.3725000,0.9119803,-0.0270713,-4.2149394,0.9119803,0.2143778,3.5967350
0.3750000,0.3750000,0.3750000,0.7778379,-0.0297769,-4.2113268,0.7778379,0.1225397,3.3103743
0.3775000,0.3775000,0.3775000,0.6530929,-0.0322620,-4.2034644,0.6530929,0.0383041,3.0343292
0.3800000,0.3800000,0.3800000,0.5373166,-0.0344759,-4.1915695,0.5373166,-0.0388996,2.7678655
0.3825000,0.3825000,0.3825000,0.4300382,-0.0363896,-4.1758462,0.4300382,-0.1096280,2.5106731
0.3850000,0.3850000,0.3850000,0.3307619,-0.0379927,-4.1564971,0.3307619,-0.1744218,2.2627635
0.3875000,0.3875000,0.3875000,0.2389840,-0.0392899,-4.1337403,0.2389840,-0.2338076,2.0243588
0.3900000,0.3900000,0.3900000,0.1542041,-0.0402978,-4.1078251,0.1542041,-0.2882989,1.7957874
0.3925000,0.3925000,0.3925000,0.0759328,-0.0410412,-4.0790440,0.0759328,-0.3383952,1.5773964
0.3950000,0.3950000,0.3950000,0.0036932,-0.0415502,-4.0477332,0.0036932,-0.3845762,1.3694871
0.3975000,0.3975000,0.3975000,-0.0629806,-0.0418572,-4.0142636,-0.0629806,-0.4272928,1.1722735
0.4000000,0.4000000,0.4000000,-0.1245462,-0.0419946,-3.9790237,-0.1245462,-0.4669569,0.9858615
0.4025000,0.4025000,0.4025000,-0.1814546,-0.0419922,-3.9423998,-0.1814546,-0.5039318,0.8102437
0.4050000,0.4050000,0.4050000,-0.2341482,-0.0418749,-3.9047551,-0.2341482,-0.5385255,0.6453050
0.4075000,0.4075000,0.4075000,-0.2830554,-0.0416615,-3.8664108,-0.2830554,-0.5709892,0.4908337
0.4100000,0.4100000,0.4100000,-0.3285813,-0.0413647,-3.8276306,-0.3285813,-0.6015198,0.3465364
0.4125000,0.4125000,0.4125000,-0.3710974,-0.0409918,-3.7886096,-0.3710974,-0.6302661,0.2120536
0.4150000,0.4150000,0.4150000,-0.4109312,-0.0405468,-3.7494700,-0.4109312,-0.6573369,0.0869759
0.4175000,0.4175000,0.4175000,-0.4483598,-0.0400327,-3.7102655,-0.4483598,-0.6828077,-0.0291403
0.4200000,0.4200000,0.4200000,-0.4836073,-0.0394537,-3.6709914,-0.4836073,-0.7067267,-0.1367589
0.4225000,0.4225000,0.4225000,-0.5168460,-0.0388172,-3.6316006,-0.5168460,-0.7291179,-0.2363525
0.4250000,0.4250000,0.4250000,-0.5482013,-0.0381341,-3.5920212,-0.5482013,-0.7499836,-0.3283934
0.4275000,0.4275000,0.4275000,-0.5777579,-0.0374188,-3.5521744,-0.5777579,-0.7693053,-0.4133493
0.4300000,0.4300000,0.4300000,-0.6055663,-0.0366884,-3.5119934,-0.6055663,-0.7870458,-0.4916811
0.4325000,0.4325000,0.4325000,-0.6316498,-0.0359608,-3.4714402,-0.6316498,-0.8031522,-0.5638428
0.4350000,0.4350000,0.4350000,-0.6560102,-0.0352525,-3.4305229,-0.6560102,-0.8175604,-0.6302826
0.4375000,0.4375000,0.4375000,-0.6786327,-0.0345773,-3.3893052,-0.6786327,-0.8302028,-0.6914418
0.4400000,0.4400000,0.4400000,-0.6994905,-0.0339448,-3.3479059,-0.6994905,-0.8410162,-0.7477518
0.4425000,0.4425000,0.4425000,-0.7185483,-0.0333599,-3.3064842,-0.7185483,-0.8499517,-0.7996287
0.4450000,0.4450000,0.4450000,-0.7357672,-0.0328231,-3.2652146,-0.7357672,-0.8569829,-0.8474660
0.4475000,0.4475000,0.4475000,-0.7511094,-0.0323306,-3.2242582,-0.7511094,-0.8621132,-0.8916269
0.4500000,0.4500000,0.4500000,-0.7645440,-0.0318756,-3.1837379,-0.7645440,-0.8653786,-0.9324377
0.4525000,0.4525000,0.4525000,-0.7760534,-0.0314488,-3.1437253,-0.7760534,-0.8668480,-0.9701837
0.4550000,0.4550000,0.4550000,-0.7856397,-0.0310390,-3.1042378,-0.7856397,-0.8666173,-1.0051074
0.4575000,0.4575000,0.4575000,-0.7933304,-0.0306338,-3.0652470,-0.7933304,-0.8648017,-1.0374093
0.4600000,0.4600000,0.4600000,-0.7991807,-0.0302201,-3.0266919,-0.7991807,-0.8615261,-1.0672510
0.4625000,0.4625000,0.4625000,-0.8032730,-0.0297847,-2.9884943,-0.8032730,-0.8569162,-1.0947596
0.4650000,0.4650000,0.4650000,-0.8057120,-0.0293155,-2.9505725,-0.8057120,-0.8510910,-1.1200324
0.4675000,0.4675000,0.4675000,-0.8066166,-0.0288022,-2.9128520,-0.8066166,-0.8441591,-1.1431425
0.4700000,0.4700000,0.4700000,-0.8061110,-0.0282376,-2.8752721,-0.8061110,-0.8362171,-1.1641427
0.4725000,0.4725000,0.4725000,-0.8043157,-0.0276186,-2.8377896,-0.8043157,-0.8273504,-1.1830700
0.4750000,0.4750000,0.4750000,-0.8013407,-0.0269459,-2.8003790,-0.8013407,-0.8176354,-1.1999487
0.4775000,0.4775000,0.4775000,-0.7972820,-0.0262241,-2.7630316,-0.7972820,-0.8071425,-1.2147944
0.4800000,0.4800000,0.4800000,-0.7922205,-0.0254612,-2.7257531,-0.7922205,-0.7959390,-1.2276176
0.4825000,0.4825000,0.4825000,-0.7862238,-0.0246672,-2.6885604,-0.7862238,-0.7840928,-1.2384285
0.4850000,0.4850000,0.4850000,-0.7793493,-0.0238537,-2.6514791,-0.7793493,-0.7716753,-1.2472422
0.4875000,0.4875000,0.4875000,-0.7716477,-0.0230324,-2.6145404,-0.7716477,-0.7587652,-1.2540841
0.4900000,0.4900000,0.4900000,-0.7631677,-0.0222142,-2.5777791,-0.7631677,-0.7454504,-1.2589948
0.4925000,0.4925000,0.4925000,-0.7539600,-0.0214088,-2.5412311,-0.7539600,-0.7318299,-1.2620339
0.4950000,0.4950000,0.4950000,-0.7440816,-0.0206236,-2.5049325,-0.7440816,-0.7180131,-1.2632799
0.4975000,0.4975000,0.4975000,-0.7335994,-0.0198637,-2.4689181,-0.7335994,-0.7041166,-1.2628288
0.5000000,0.5000000,0.5000000,-0.7225938,-0.0191310,-2.4332206,-0.7225938,-0.6902590,-1.2607893
0.5025000,0.5025000,0.5025000,-0.7111597,-0.0184250,-2.3978701,-0.7111597,-0.6765535,-1.2572758
0.5050000,0.5050000,0.5050000,-0.6994061,-0.0177421,-2.3628940,-0.6994061,-0.6630995,-1.2524023
0.5075000,0.5075000,0.5075000,-0.6874531,-0.0170765,-2.3283163,-0.6874531,-0.6499756,-1.2462757
0.5100000,0.5100000,0.5100000,-0.6754258,-0.0164213,-2.2941582,-0.6754258,-0.6372344,-1.2389922
0.5125000,0.5125000,0.5125000,-0.6634464,-0.0157691,-2.2604378,-0.6634464,-0.6249005,-1.2306345
0.5150000,0.5150000,0.5150000,-0.6516246,-0.0151134,-2.2271705,-0.6516246,-0.6129724,-1.2212720
0.5175000,0.5175000,0.5175000,-0.6400500,-0.0144494,-2.1943687,-0.6400500,-0.6014264,-1.2109627
0.5200000,0.5200000,0.5200000,-0.6287858,-0.0137749,-2.1620426,-0.6287858,-0.5902225,-1.1997559
0.5225000,0.5225000,0.5225000,-0.6178659,-0.0130905,-2.1301998,-0.6178659,-0.5793113,-1.1876962
0.5250000,0.5250000,0.5250000,-0.6072959,-0.0123991,-2.0988462,-0.6072959,-0.5686393,-1.1748280
0.5275000,0.5275000,0.5275000,-0.5970569,-0.0117061,-2.0679856,-0.5970569,-0.5581550,-1.1611999
0.5300000,0.5300000,0.5300000,-0.5871109,-0.0110181,-2.0376201,-0.5871109,-0.5478117,-1.1468695
0.5325000,0.5325000,0.5325000,-0.5774082,-0.0103422,-2.0077506,-0.5774082,-0.5375704,-1.1319067
0.5350000,0.5350000,0.5350000,-0.5678932,-0.0096857,-1.9783763,-0.5678932,-0.5274008,-1.1163961
0.5375000,0.5375000,0.5375000,-0.5585106,-0.0090551,-1.9494956,-0.5585106,-0.5172814,-1.1004375
0.5400000,0.5400000,0.5400000,-0.5492097,-0.0084559,-1.9211058,-0.5492097,-0.5071987,-1.0841435
0.5425000,0.5425000,0.5425000,-0.5399470,-0.0078926,-1.8932032,-0.5399470,-0.4971467,-1.0676350
0.5450000,0.5450000,0.5450000,-0.5306880,-0.0073680,-1.8657835,-0.5306880,-0.4871251,-1.0510343
0.5475000,0.5475000,0.5475000,-0.5214081,-0.0068840,-1.8388418,-0.5214081,-0.4771387,-1.0344577
0.5500000,0.5500000,0.5500000,-0.5120914,-0.0064412,-1.8123725,-0.5120914,-0.4671956,-1.0180073
0.5525000,0.5525000,0.5525000,-0.5027307,-0.0060392,-1.7863697,-0.5027307,-0.4573062,-1.0017650
0.5550000,0.5550000,0.5550000,-0.4933258,-0.0056768,-1.7608271,-0.4933258,-0.4474826,-0.9857884
0.5575000,0.5575000,0.5575000,-0.4838822,-0.0053524,-1.7357380,-0.4838822,-0.4377376,-0.9701093
0.5600000,0.5600000,0.5600000,-0.4744100,-0.0050637,-1.7110956,-0.4744100,-0.4280839,-0.9547352
0.5625000,0.5625000,0.5625000,-0.4649221,-0.0048082,-1.6868927,-0.4649221,-0.4185340,-0.9396529
0.5650000,0.5650000,0.5650000,-0.4554341,-0.0045835,-1.6631221,-0.4554341,-0.4090997,-0.9248329
0.5675000,0.5675000,0.5675000,-0.4459622,-0.0043867,-1.6397765,-0.4459622,-0.3997918,-0.9102355
0.5700000,0.5700000,0.5700000,-0.4365233,-0.0042153,-1.6168484,-0.4365233,-0.3906200,-0.8958154
0.5725000,0.5725000,0.5725000,-0.4271342,-0.0040667,-1.5943304,-0.4271342,-0.3815930,-0.8815267
0.5750000,0.5750000,0.5750000,-0.4178108,-0.0039384,-1.5722150,-0.4178108,-0.3727182,-0.8673267
0.5775000,0.5775000,0.5775000,-0.4085682,-0.0038282,-1.5504946,-0.4085682,-0.3640018,-0.8531782
0.5800000,0.5800000,0.5800000,-0.3994204,-0.0037339,-1.5291619,-0.3994204,-0.3554489,-0.8390514
0.5825000,0.5825000,0.5825000,-0.3903801,-0.0036537,-1.5082095,-0.3903801,-0.3470639,-0.8249244
0.5850000,0.5850000,0.5850000,-0.3814585,-0.0035856,-1.4876298,-0.3814585,-0.3388496,-0.8107832
0.5875000,0.5875000,0.5875000,-0.3726655,-0.0035282,-1.4674158,-0.3726655,-0.3308085,-0.7966215
0.5900000,0.5900000,0.5900000,-0.3640098,-0.0034799,-1.4475601,-0.3640098,-0.3229418,-0.7824394
0.5925000,0.5925000,0.5925000,-0.3554987,-0.0034395,-1.4280556,-0.3554987,-0.3152505,-0.7682427
0.5950000,0.5950000,0.5950000,-0.3471382,-0.0034059,-1.4088953,-0.3471382,-0.3077343,-0.7540418
0.5975000,0.5975000,0.5975000,-0.3389333,-0.0033779,-1.3900724,-0.3389333,-0.3003930,-0.7398504
0.6000000,0.6000000,0.6000000,-0.3308879,-0.0033548,-1.3715799,-0.3308879,-0.2932254,-0.7256846
0.6025000,0.6025000,0.6025000,-0.3230049,-0.0033358,-1.3534111,-0.3230049,-0.2862300,-0.7115621
0.6050000,0.6050000,0.6050000,-0.3152866,-0.0033201,-1.3355595,-0.3152866,-0.2794052,-0.6975012
0.6075000,0.6075000,0.6075000,-0.3077341,-0.0033072,-1.3180187,-0.3077341,-0.2727486,-0.6835207
0.6100000,0.6100000,0.6100000,-0.3003482,-0.0032965,-1.3007822,-0.3003482,-0.2662579,-0.6696387
0.6125000,0.6125000,0.6125000,-0.2931289,-0.0032876,-1.2838438,-0.2931289,-0.2599304,-0.6558728
0.6150000,0.6150000,0.6150000,-0.2860757,-0.0032801,-1.2671974,-0.2860757,-0.2537632,-0.6422393
0.6175000,0.6175000,0.6175000,-0.2791877,-0.0032736,-1.2508371,-0.2791877,-0.2477535,-0.6287536
0.6200000,0.6200000,0.6200000,-0.2724635,-0.0032680,-1.2347569,-0.2724635,-0.2418981,-0.6154295
0.6225000,0.6225000,0.6225000,-0.2659014,-0.0032628,-1.2189512,-0.2659014,-0.2361937,-0.6022796
0.6250000,0.6250000,0.6250000,-0.2594993,-0.0032580,-1.2034142,-0.2594993,-0.2306371,-0.5893149
0.6275000,0.6275000,0.6275000,-0.2532551,-0.0032534,-1.1881405,-0.2532551,-0.2252251,-0.5765451
0.6300000,0.6300000,0.6300000,-0.2471663,-0.0032488,-1.1731247,-0.2471663,-0.2199542,-0.5639784
0.6325000,0.6325000,0.6325000,-0.2412303,-0.0032440,-1.1583615,-0.2412303,-0.2148211,-0.5516218
0.6350000,0.6350000,0.6350000,-0.2354441,-0.0032390,-1.1438457,-0.2354441,-0.2098224,-0.5394812
0.6375000,0.6375000,0.6375000,-0.2298051,-0.0032338,-1.1295724,-0.2298051,-0.2049549,-0.5275610
0.6400000,0.6400000,0.6400000,-0.2243102,-0.0032281,-1.1155365,-0.2243102,-0.2002151,-0.5158648
0.6425000,0.6425000,0.6425000,-0.2189563,-0.0032221,-1.1017333,-0.2189563,-0.1955999,-0.5043952
0.6450000,0.6450000,0.6450000,-0.2137404,-0.0032156,-1.0881581,-0.2137404,-0.1911059,-0.4931539
0.6475000,0.6475000,0.6475000,-0.2086594,-0.0032086,-1.0748061,-0.2086594,-0.1867300,-0.4821417
0.6500000,0.6500000,0.6500000,-0.2037101,-0.0032011,-1.0616730,-0.2037101,-0.1824690,-0.4713589
0.6525000,0.6525000,0.6525000,-0.1988894,-0.0031931,-1.0487543,-0.1988894,-0.1783198,-0.4608050
0.6550000,0.6550000,0.6550000,-0.1941941,-0.0031846,-1.0360456,-0.1941941,-0.1742794,-0.4504789
0.6575000,0.6575000,0.6575000,-0.1896213,-0.0031755,-1.0235429,-0.1896213,-0.1703448,-0.4403792
0.6600000,0.6600000,0.6600000,-0.1851677,-0.0031659,-1.0112420,-0.1851677,-0.1665132,-0.4305038
0.6625000,0.6625000,0.6625000,-0.1808304,-0.0031558,-0.9991388,-0.1808304,-0.1627816,-0.4208504
0.6650000,0.6650000,0.6650000,-0.1766063,-0.0031452,-0.9872294,-0.1766063,-0.1591473,-0.4114164
0.6675000,0.6675000,0.6675000,-0.1724926,-0.0031341,-0.9755101,-0.1724926,-0.1556076,-0.4021989
0.6700000,0.6700000,0.6700000,-0.1684862,-0.0031225,-0.9639769,-0.1684862,-0.1521598,-0.3931946
0.6725000,0.6725000,0.6725000,-0.1645844,-0.0031104,-0.9526264,-0.1645844,-0.1488014,-0.3844001
0.6750000,0.6750000,0.6750000,-0.1607843,-0.0030979,-0.9414548,-0.1607843,-0.1455298,-0.3758120
0.6775000,0.6775000,0.6775000,-0.1570833,-0.0030849,-0.9304587,-0.1570833,-0.1423426,-0.3674266
0.6800000,0.6800000,0.6800000,-0.1534785,-0.0030716,-0.9196347,-0.1534785,-0.1392374,-0.3592400
0.6825000,0.6825000,0.6825000,-0.1499674,-0.0030578,-0.9089794,-0.1499674,-0.1362119,-0.3512484
0.6850000,0.6850000,0.6850000,-0.1465475,-0.0030436,-0.8984895,-0.1465475,-0.1332639,-0.3434479
0.6875000,0.6875000,0.6875000,-0.1432162,-0.0030291,-0.8881619,-0.1432162,-0.1303912,-0.3358346
0.6900000,0.6900000,0.6900000,-0.1399710,-0.0030143,-0.8779934,-0.1399710,-0.1275916,-0.3284044
0.6925000,0.6925000,0.6925000,-0.1368096,-0.0029991,-0.8679810,-0.1368096,-0.1248630,-0.3211533
0.6950000,0.6950000,0.6950000,-0.1337298,-0.0029837,-0.8581216,-0.1337298,-0.1222036,-0.3140775
0.6975000,0.6975000,0.6975000,-0.1307291,-0.0029679,-0.8484124,-0.1307291,-0.1196112,-0.3071728
0.7000000,0.7000000,0.7000000,-0.1278054,-0.0029519,-0.8388506,-0.1278054,-0.1170841,-0.3004354
0.7025000,0.7025000,0.7025000,-0.1249566,-0.0029357,-0.8294332,-0.1249566,-0.1146203,-0.2938613
0.7050000,0.7050000,0.7050000,-0.1221806,-0.0029192,-0.8201577,-0.1221806,-0.1122182,-0.2874467
0.7075000,0.7075000,0.7075000,-0.1194754,-0.0029025,-0.8110213,-0.1194754,-0.1098759,-0.2811878
0.7100000,0.7100000,0.7100000,-0.1168389,-0.0028856,-0.8020214,-0.1168389,-0.1075918,-0.2750807
0.7125000,0.7125000,0.7125000,-0.1142693,-0.0028686,-0.7931555,-0.1142693,-0.1053643,-0.2691219
0.7150000,0.7150000,0.7150000,-0.1117647,-0.0028514,-0.7844211,-0.1117647,-0.1031917,-0.2633075
0.7175000,0.7175000,0.7175000,-0.1093233,-0.0028340,-0.7758157,-0.1093233,-0.1010726,-0.2576341
0.7200000,0.7200000,0.7200000,-0.1069433,-0.0028165,-0.7673370,-0.1069433,-0.0990055,-0.2520981
0.7225000,0.7225000,0.7225000,-0.1046231,-0.0027989,-0.7589826,-0.1046231,-0.0969888,-0.2466960
0.7250000,0.7250000,0.7250000,-0.1023609,-0.0027812,-0.7507503,-0.1023609,-0.0950213,-0.2414246
0.7275000,0.7275000,0.7275000,-0.1001552,-0.0027633,-0.7426378,-0.1001552,-0.0931015,-0.2362804
0.7300000,0.7300000,0.7300000,-0.0980043,-0.0027454,-0.7346429,-0.0980043,-0.0912282,-0.2312602
0.7325000,0.7325000,0.7325000,-0.0959069,-0.0027275,-0.7267635,-0.0959069,-0.0894000,-0.2263609
0.7350000,0.7350000,0.7350000,-0.0938613,-0.0027095,-0.7189975,-0.0938613,-0.0876157,-0.2215794
0.7375000,0.7375000,0.7375000,-0.0918662,-0.0026914,-0.7113429,-0.0918662,-0.0858742,-0.2169126
0.7400000,0.7400000,0.7400000,-0.0899202,-0.0026733,-0.7037976,-0.0899202,-0.0841741,-0.2123576
0.7425000,0.7425000,0.7425000,-0.0880219,-0.0026552,-0.6963598,-0.0880219,-0.0825145,-0.2079116
0.7450000,0.7450000,0.7450000,-0.0861700,-0.0026370,-0.6890274,-0.0861700,-0.0808942,-0.2035716
0.7475000,0.7475000,0.7475000,-0.0843632,-0.0026188,-0.6817987,-0.0843632,-0.0793121,-0.1993350
0.7500000,0.7500000,0.7500000,-0.0826004,-0.0026007,-0.6746717,-0.0826004,-0.0777673,-0.1951991
0.7525000,0.7525000,0.7525000,-0.0808803,-0.0025825,-0.6676447,-0.0808803,-0.0762586,-0.1911612
0.7550000,0.7550000,0.7550000,-0.0792017,-0.0025644,-0.6607160,-0.0792017,-0.0747852,-0.1872189
0.7575000,0.7575000,0.7575000,-0.0775636,-0.0025463,-0.6538837,-0.0775636,-0.0733461,-0.1833697
0.7600000,0.7600000,0.7600000,-0.0759647,-0.0025282,-0.6471463,-0.0759647,-0.0719403,-0.1796112
0.7625000,0.7625000,0.7625000,-0.0744042,-0.0025101,-0.6405020,-0.0744042,-0.0705670,-0.1759409
0.7650000,0.7650000,0.7650000,-0.0728809,-0.0024921,-0.6339493,-0.0728809,-0.0692254,-0.1723567
0.7675000,0.7675000,0.7675000,-0.0713938,-0.0024741,-0.6274865,-0.0713938,-0.0679145,-0.1688564
0.7700000,0.7700000,0.7700000,-0.0699419,-0.0024562,-0.6211122,-0.0699419,-0.0666336,-0.1654376
0.7725000,0.7725000,0.7725000,-0.0685244,-0.0024383,-0.6148247,-0.0685244,-0.0653818,-0.1620984
0.7750000,0.7750000,0.7750000,-0.0671403,-0.0024205,-0.6086227,-0.0671403,-0.0641585,-0.1588367
0.7775000,0.7775000,0.7775000,-0.0657887,-0.0024028,-0.6025047,-0.0657887,-0.0629628,-0.1556505
0.7800000,0.7800000,0.7800000,-0.0644687,-0.0023851,-0.5964691,-0.0644687,-0.0617941,-0.1525379
0.7825000,0.7825000,0.7825000,-0.0631796,-0.0023675,-0.5905147,-0.0631796,-0.0606516,-0.1494969
0.7850000,0.7850000,0.7850000,-0.0619204,-0.0023500,-0.5846401,-0.0619204,-0.0595347,-0.1465258
0.7875000,0.7875000,0.7875000,-0.0606904,-0.0023326,-0.5788439,-0.0606904,-0.0584427,-0.1436227
0.7900000,0.7900000,0.7900000,-0.0594889,-0.0023152,-0.5731248,-0.0594889,-0.0573750,-0.1407859
0.7925000,0.7925000,0.7925000,-0.0583151,-0.0022980,-0.5674815,-0.0583151,-0.0563309,-0.1380137
0.7950000,0.7950000,0.7950000,-0.0571682,-0.0022808,-0.5619128,-0.0571682,-0.0553098,-0.1353045
0.7975000,0.7975000,0.7975000,-0.0560476,-0.0022637,-0.5564174,-0.0560476,-0.0543111,-0.1326567
0.8000000,0.8000000,0.8000000,-0.0549526,-0.0022467,-0.5509941,-0.0549526,-0.0533344,-0.1300686
0.8025000,0.8025000,0.8025000,-0.0538825,-0.0022298,-0.5456417,-0.0538825,-0.0523789,-0.1275389
0.8050000,0.8050000,0.8050000,-0.0528367,-0.0022130,-0.5403591,-0.0528367,-0.0514443,-0.1250660
0.8075000,0.8075000,0.8075000,-0.0518146,-0.0021964,-0.5351451,-0.0518146,-0.0505298,-0.1226485
0.8100000,0.8100000,0.8100000,-0.0508154,-0.0021798,-0.5299986,-0.0508154,-0.0496352,-0.1202849
0.8125000,0.8125000,0.8125000,-0.0498388,-0.0021633,-0.5249185,-0.0498388,-0.0487598,-0.1179741
0.8150000,0.8150000,0.8150000,-0.0488840,-0.0021469,-0.5199038,-0.0488840,-0.0479031,-0.1157145
0.8175000,0.8175000,0.8175000,-0.0479505,-0.0021306,-0.5149533,-0.0479505,-0.0470648,-0.1135050
0.8200000,0.8200000,0.8200000,-0.0470379,-0.0021145,-0.5100660,-0.0470379,-0.0462443,-0.1113442
0.8225000,0.8225000,0.8225000,-0.0461454,-0.0020984,-0.5052410,-0.0461454,-0.0454412,-0.1092311
0.8250000,0.8250000,0.8250000,-0.0452727,-0.0020825,-0.5004772,-0.0452727,-0.0446551,-0.1071643
0.8275000,0.8275000,0.8275000,-0.0444193,-0.0020667,-0.4957736,-0.0444193,-0.0438856,-0.1051428
0.8300000,0.8300000,0.8300000,-0.0435846,-0.0020509,-0.4911294,-0.0435846,-0.0431322,-0.1031654
0.8325000,0.8325000,0.8325000,-0.0427683,-0.0020353,-0.4865434,-0.0427683,-0.0423945,-0.1012310
0.8350000,0.8350000,0.8350000,-0.0419697,-0.0020199,-0.4820150,-0.0419697,-0.0416723,-0.0993387
0.8375000,0.8375000,0.8375000,-0.0411886,-0.0020045,-0.4775430,-0.0411886,-0.0409651,-0.0974872
0.8400000,0.8400000,0.8400000,-0.0404244,-0.0019892,-0.4731267,-0.0404244,-0.0402725,-0.0956758
0.8425000,0.8425000,0.8425000,-0.0396768,-0.0019741,-0.4687652,-0.0396768,-0.0395941,-0.0939033
0.8450000,0.8450000,0.8450000,-0.0389452,-0.0019590,-0.4644576,-0.0389452,-0.0389298,-0.0921688
0.8475000,0.8475000,0.8475000,-0.0382295,-0.0019441,-0.4602031,-0.0382295,-0.0382790,-0.0904714
0.8500000,0.8500000,0.8500000,-0.0375291,-0.0019293,-0.4560009,-0.0375291,-0.0376416,-0.0888103
0.8525000,0.8525000,0.8525000,-0.0368436,-0.0019146,-0.4518501,-0.0368436,-0.0370171,-0.0871844
0.8550000,0.8550000,0.8550000,-0.0361728,-0.0019001,-0.4477499,-0.0361728,-0.0364053,-0.0855931
0.8575000,0.8575000,0.8575000,-0.0355162,-0.0018856,-0.4436997,-0.0355162,-0.0358058,-0.0840354
0.8600000,0.8600000,0.8600000,-0.0348735,-0.0018713,-0.4396986,-0.0348735,-0.0352184,-0.0825105
0.8625000,0.8625000,0.8625000,-0.0342445,-0.0018571,-0.4357459,-0.0342445,-0.0346428,-0.0810177
0.8650000,0.8650000,0.8650000,-0.0336286,-0.0018429,-0.4318408,-0.0336286,-0.0340787,-0.0795562
0.8675000,0.8675000,0.8675000,-0.0330257,-0.0018290,-0.4279826,-0.0330257,-0.0335259,-0.0781252
0.8700000,0.8700000,0.8700000,-0.0324354,-0.0018151,-0.4241707,-0.0324354,-0.0329840,-0.0767241
0.8725000,0.8725000,0.8725000,-0.0318574,-0.0018013,-0.4204042,-0.0318574,-0.0324529,-0.0753521
0.8750000,0.8750000,0.8750000,-0.0312915,-0.0017877,-0.4166826,-0.0312915,-0.0319323,-0.0740085
0.8775000,0.8775000,0.8775000,-0.0307373,-0.0017741,-0.4130052,-0.0307373,-0.0314219,-0.0726927
0.8800000,0.8800000,0.8800000,-0.0301945,-0.0017607,-0.4093713,-0.0301945,-0.0309215,-0.0714040
0.8825000,0.8825000,0.8825000,-0.0296630,-0.0017474,-0.4057803,-0.0296630,-0.0304308,-0.0701417
0.8850000,0.8850000,0.8850000,-0.0291423,-0.0017342,-0.4022314,-0.0291423,-0.0299498,-0.0689054
0.8875000,0.8875000,0.8875000,-0.0286324,-0.0017211,-0.3987242,-0.0286324,-0.0294780,-0.0676943
0.8900000,0.8900000,0.8900000,-0.0281328,-0.0017081,-0.3952580,-0.0281328,-0.0290154,-0.0665078
0.8925000,0.8925000,0.8925000,-0.0276435,-0.0016953,-0.3918321,-0.0276435,-0.0285617,-0.0653455
0.8950000,0.8950000,0.8950000,-0.0271641,-0.0016825,-0.3884461,-0.0271641,-0.0281167,-0.0642067
0.8975000,0.8975000,0.8975000,-0.0266944,-0.0016699,-0.3850993,-0.0266944,-0.0276802,-0.0630909
0.9000000,0.9000000,0.9000000,-0.0262341,-0.0016573,-0.3817911,-0.0262341,-0.0272521,-0.0619975
0.9025000,0.9025000,0.9025000,-0.0257832,-0.0016449,-0.3785210,-0.0257832,-0.0268321,-0.0609262
0.9050000,0.9050000,0.9050000,-0.0253413,-0.0016326,-0.3752884,-0.0253413,-0.0264201,-0.0598763
0.9075000,0.9075000,0.9075000,-0.0249082,-0.0016204,-0.3720929,-0.0249082,-0.0260158,-0.0588473
0.9100000,0.9100000,0.9100000,-0.0244838,-0.0016082,-0.3689338,-0.0244838,-0.0256192,-0.0578389
0.9125000,0.9125000,0.9125000,-0.0240679,-0.0015962,-0.3658106,-0.0240679,-0.0252300,-0.0568504
0.9150000,0.9150000,0.9150000,-0.0236602,-0.0015843,-0.3627229,-0.0236602,-0.0248481,-0.0558816
0.9175000,0.9175000,0.9175000,-0.0232605,-0.0015725,-0.3596701,-0.0232605,-0.0244733,-0.0549319
0.9200000,0.9200000,0.9200000,-0.0228688,-0.0015609,-0.3566517,-0.0228688,-0.0241055,-0.0540008
0.9225000,0.9225000,0.9225000,-0.0224847,-0.0015493,-0.3536673,-0.0224847,-0.0237445,-0.0530881
0.9250000,0.9250000,0.9250000,-0.0221082,-0.0015378,-0.3507163,-0.0221082,-0.0233901,-0.0521932
0.9275000,0.9275000,0.9275000,-0.0217390,-0.0015264,-0.3477984,-0.0217390,-0.0230423,-0.0513159
0.9300000,0.9300000,0.9300000,-0.0213771,-0.0015151,-0.3449129,-0.0213771,-0.0227009,-0.0504556
0.9325000,0.9325000,0.9325000,-0.0210222,-0.0015039,-0.3420595,-0.0210222,-0.0223657,-0.0496120
0.9350000,0.9350000,0.9350000,-0.0206742,-0.0014928,-0.3392378,-0.0206742,-0.0220366,-0.0487847
0.9375000,0.9375000,0.9375000,-0.0203329,-0.0014818,-0.3364472,-0.0203329,-0.0217135,-0.0479735
0.9400000,0.9400000,0.9400000,-0.0199982,-0.0014709,-0.3336874,-0.0199982,-0.0213963,-0.0471778
0.9425000,0.9425000,0.9425000,-0.0196699,-0.0014601,-0.3309579,-0.0196699,-0.0210847,-0.0463975
0.9450000,0.9450000,0.9450000,-0.0193479,-0.0014494,-0.3282583,-0.0193479,-0.0207788,-0.0456321
0.9475000,0.9475000,0.9475000,-0.0190321,-0.0014388,-0.3255882,-0.0190321,-0.0204784,-0.0448813
0.9500000,0.9500000,0.9500000,-0.0187223,-0.0014283,-0.3229472,-0.0187223,-0.0201833,-0.0441448
0.9525000,0.9525000,0.9525000,-0.0184184,-0.0014179,-0.3203349,-0.0184184,-0.0198935,-0.0434223
0.9550000,0.9550000,0.9550000,-0.0181202,-0.0014076,-0.3177509,-0.0181202,-0.0196089,-0.0427135
0.9575000,0.9575000,0.9575000,-0.0178277,-0.0013973,-0.3151948,-0.0178277,-0.0193293,-0.0420181
0.9600000,0.9600000,0.9600000,-0.0175408,-0.0013872,-0.3126663,-0.0175408,-0.0190546,-0.0413358
0.9625000,0.9625000,0.9625000,-0.0172592,-0.0013771,-0.3101649,-0.0172592,-0.0187848,-0.0406664
0.9650000,0.9650000,0.9650000,-0.0169829,-0.0013672,-0.3076903,-0.0169829,-0.0185197,-0.0400095
0.9675000,0.9675000,0.9675000,-0.0167117,-0.0013573,-0.3052422,-0.0167117,-0.0182592,-0.0393648
0.9700000,0.9700000,0.9700000,-0.0164456,-0.0013475,-0.3028201,-0.0164456,-0.0180033,-0.0387322
0.9725000,0.9725000,0.9725000,-0.0161845,-0.0013378,-0.3004238,-0.0161845,-0.0177518,-0.0381114
0.9750000,0.9750000,0.9750000,-0.0159282,-0.0013282,-0.2980529,-0.0159282,-0.0175047,-0.0375021
0.9775000,0.9775000,0.9775000,-0.0156767,-0.0013186,-0.2957070,-0.0156767,-0.0172618,-0.0369040
0.9800000,0.9800000,0.9800000,-0.0154298,-0.0013092,-0.2933859,-0.0154298,-0.0170232,-0.0363170
0.9825000,0.9825000,0.9825000,-0.0151874,-0.0012998,-0.2910892,-0.0151874,-0.0167886,-0.0357408
0.9850000,0.9850000,0.9850000,-0.0149495,-0.0012905,-0.2888165,-0.0149495,-0.0165581,-0.0351752
0.9875000,0.9875000,0.9875000,-0.0147159,-0.0012813,-0.2865676,-0.0147159,-0.0163314,-0.0346199
0.9900000,0.9900000,0.9900000,-0.0144866,-0.0012722,-0.2843421,-0.0144866,-0.0161087,-0.0340748
0.9925000,0.9925000,0.9925000,-0.0142615,-0.0012632,-0.2821398,-0.0142615,-0.0158897,-0.0335396
0.9950000,0.9950000,0.9950000,-0.0140405,-0.0012542,-0.2799603,-0.0140405,-0.0156744,-0.0330141
0.9975000,0.9975000,0.9975000,-0.0138234,-0.0012454,-0.2778034,-0.0138234,-0.0154627,-0.0324981
1.0000000,1.0000000,1.0000000,-0.0136103,-0.0012366,-0.2756687,-0.0136103,-0.0152546,-0.0319915
1.0025000,1.0025000,1.0025000,-0.0134011,-0.0012278,-0.2735559,-0.0134011,-0.0150500,-0.0314940
1.0050000,1.0050000,1.0050000,-0.0131955,-0.0012192,-0.2714649,-0.0131955,-0.0148488,-0.0310054
1.0075000,1.0075000,1.0075000,-0.0129937,-0.0012106,-0.2693952,-0.0129937,-0.0146509,-0.0305256
1.0100000,1.0100000,1.0100000,-0.0127955,-0.0012021,-0.2673467,-0.0127955,-0.0144564,-0.0300544
1.0125000,1.0125000,1.0125000,-0.0126008,-0.0011937,-0.2653190,-0.0126008,-0.0142650,-0.0295916
1.0150000,1.0150000,1.0150000,-0.0124096,-0.0011854,-0.2633119,-0.0124096,-0.0140768,-0.0291370
1.0175000,1.0175000,1.0175000,-0.0122217,-0.0011771,-0.2613251,-0.0122217,-0.0138917,-0.0286905
1.0200000,1.0200000,1.0200000,-0.0120372,-0.0011689,-0.2593584,-0.0120372,-0.0137097,-0.0282519
1.0225000,1.0225000,1.0225000,-0.0118560,-0.0011608,-0.2574115,-0.0118560,-0.0135306,-0.0278210
1.0250000,1.0250000,1.0250000,-0.0116779,-0.0011527,-0.2554842,-0.0116779,-0.0133544,-0.0273977
1.0275000,1.0275000,1.0275000,-0.0115029,-0.0011447,-0.2535762,-0.0115029,-0.0131811,-0.0269819
1.0300000,1.0300000,1.0300000,-0.0113310,-0.0011368,-0.2516872,-0.0113310,-0.0130106,-0.0265734
1.0325000,1.0325000,1.0325000,-0.0111622,-0.0011290,-0.2498171,-0.0111622,-0.0128429,-0.0261720
1.0350000,1.0350000,1.0350000,-0.0109962,-0.0011212,-0.2479656,-0.0109962,-0.0126778,-0.0257776
1.0375000,1.0375000,1.0375000,-0.0108332,-0.0011135,-0.2461324,-0.0108332,-0.0125154,-0.0253901
1.0400000,1.0400000,1.0400000,-0.0106729,-0.0011059,-0.2443174,-0.0106729,-0.0123556,-0.0250092
1.0425000,1.0425000,1.0425000,-0.0105155,-0.0010983,-0.2425203,-0.0105155,-0.0121984,-0.0246350
1.0450000,1.0450000,1.0450000,-0.0103607,-0.0010908,-0.2407409,-0.0103607,-0.0120437,-0.0242673
1.0475000,1.0475000,1.0475000,-0.0102086,-0.0010833,-0.2389789,-0.0102086,-0.0118914,-0.0239059
1.0500000,1.0500000,1.0500000,-0.0100591,-0.0010760,-0.2372342,-0.0100591,-0.0117415,-0.0235507
1.0525000,1.0525000,1.0525000,-0.0099122,-0.0010686,-0.2355066,-0.0099122,-0.0115940,-0.0232015
1.0550000,1.0550000,1.0550000,-0.0097678,-0.0010614,-0.2337958,-0.0097678,-0.0114488,-0.0228584
1.0575000,1.0575000,1.0575000,-0.0096258,-0.0010542,-0.2321016,-0.0096258,-0.0113059,-0.0225211
1.0600000,1.0600000,1.0600000,-0.0094863,-0.0010471,-0.2304238,-0.0094863,-0.0111652,-0.0221895
1.0625000,1.0625000,1.0625000,-0.0093491,-0.0010400,-0.2287623,-0.0093491,-0.0110267,-0.0218636
1.0650000,1.0650000,1.0650000,-0.0092142,-0.0010330,-0.2271168,-0.0092142,-0.0108904,-0.0215432
1.0675000,1.0675000,1.0675000,-0.0090816,-0.0010261,-0.2254872,-0.0090816,-0.0107562,-0.0212282
1.0700000,1.0700000,1.0700000,-0.0089513,-0.0010192,-0.2238731,-0.0089513,-0.0106241,-0.0209185
1.0725000,1.0725000,1.0725000,-0.0088231,-0.0010124,-0.2222746,-0.0088231,-0.0104939,-0.0206141
1.0750000,1.0750000,1.0750000,-0.0086970,-0.0010056,-0.2206913,-0.0086970,-0.0103658,-0.0203147
1.0775000,1.0775000,1.0775000,-0.0085731,-0.0009989,-0.2191231,-0.0085731,-0.0102397,-0.0200203
1.0800000,1.0800000,1.0800000,-0.0084512,-0.0009922,-0.2175698,-0.0084512,-0.0101155,-0.0197309
1.0825000,1.0825000,1.0825000,-0.0083314,-0.0009856,-0.2160312,-0.0083314,-0.0099932,-0.0194463
1.0850000,1.0850000,1.0850000,-0.0082135,-0.0009791,-0.2145072,-0.0082135,-0.0098727,-0.0191664
1.0875000,1.0875000,1.0875000,-0.0080976,-0.0009726,-0.2129976,-0.0080976,-0.0097541,-0.0188911
1.0900000,1.0900000,1.0900000,-0.0079836,-0.0009662,-0.2115022,-0.0079836,-0.0096372,-0.0186204
1.0925000,1.0925000,1.0925000,-0.0078715,-0.0009598,-0.2100208,-0.0078715,-0.0095221,-0.0183542
1.0950000,1.0950000,1.0950000,-0.0077612,-0.0009535,-0.2085533,-0.0077612,-0.0094088,-0.0180923
1.0975000,1.0975000,1.0975000,-0.0076527,-0.0009472,-0.2070996,-0.0076527,-0.0092971,-0.0178348
1.1000000,1.1000000,1.1000000,-0.0075460,-0.0009410,-0.2056594,-0.0075460,-0.0091871,-0.0175815
1.1025000,1.1025000,1.1025000,-0.0074410,-0.0009349,-0.2042325,-0.0074410,-0.0090788,-0.0173323
1.1050000,1.1050000,1.1050000,-0.0073378,-0.0009288,-0.2028190,-0.0073378,-0.0089720,-0.0170871
1.1075000,1.1075000,1.1075000,-0.0072362,-0.0009227,-0.2014185,-0.0072362,-0.0088669,-0.0168460
1.1100000,1.1100000,1.1100000,-0.0071362,-0.0009167,-0.2000309,-0.0071362,-0.0087633,-0.0166088
1.1125000,1.1125000,1.1125000,-0.0070379,-0.0009107,-0.1986561,-0.0070379,-0.0086612,-0.0163754
1.1150000,1.1150000,1.1150000,-0.0069412,-0.0009048,-0.1972940,-0.0069412,-0.0085606,-0.0161458
1.1175000,1.1175000,1.1175000,-0.0068460,-0.0008990,-0.1959443,-0.0068460,-0.0084615,-0.0159199
1.1200000,1.1200000,1.1200000,-0.0067523,-0.0008932,-0.1946070,-0.0067523,-0.0083638,-0.0156976
1.1225000,1.1225000,1.1225000,-0.0066601,-0.0008874,-0.1932820,-0.0066601,-0.0082676,-0.0154789
1.1250000,1.1250000,1.1250000,-0.0065694,-0.0008817,-0.1919689,-0.0065694,-0.0081728,-0.0152637
1.1275000,1.1275000,1.1275000,-0.0064801,-0.0008761,-0.1906678,-0.0064801,-0.0080793,-0.0150519
1.1300000,1.1300000,1.1300000,-0.0063923,-0.0008704,-0.1893785,-0.0063923,-0.0079872,-0.0148435
1.1325000,1.1325000,1.1325000,-0.0063058,-0.0008649,-0.1881009,-0.0063058,-0.0078964,-0.0146384
1.1350000,1.1350000,1.1350000,-0.0062207,-0.0008594,-0.1868348,-0.0062207,-0.0078069,-0.0144366
1.1375000,1.1375000,1.1375000,-0.0061370,-0.0008539,-0.1855801,-0.0061370,-0.0077187,-0.0142380
1.1400000,1.1400000,1.1400000,-0.0060546,-0.0008484,-0.1843366,-0.0060546,-0.0076317,-0.0140425
1.1425000,1.1425000,1.1425000,-0.0059734,-0.0008431,-0.1831043,-0.0059734,-0.0075460,-0.0138501
1.1450000,1.1450000,1.1450000,-0.0058936,-0.0008377,-0.1818830,-0.0058936,-0.0074615,-0.0136607
1.1475000,1.1475000,1.1475000,-0.0058149,-0.0008324,-0.1806726,-0.0058149,-0.0073782,-0.0134743
1.1500000,1.1500000,1.1500000,-0.0057375,-0.0008272,-0.1794730,-0.0057375,-0.0072961,-0.0132908
1.1525000,1.1525000,1.1525000,-0.0056613,-0.0008220,-0.1782840,-0.0056613,-0.0072152,-0.0131102
1.1550000,1.1550000,1.1550000,-0.0055863,-0.0008168,-0.1771055,-0.0055863,-0.0071353,-0.0129324
1.1575000,1.1575000,1.1575000,-0.0055125,-0.0008117,-0.1759375,-0.0055125,-0.0070566,-0.0127573
1.1600000,1.1600000,1.1600000,-0.0054398,-0.0008066,-0.1747797,-0.0054398,-0.0069790,-0.0125850
1.1625000,1.1625000,1.1625000,-0.0053682,-0.0008015,-0.1736322,-0.0053682,-0.0069025,-0.0124153
1.1650000,1.1650000,1.1650000,-0.0052977,-0.0007965,-0.1724947,-0.0052977,-0.0068271,-0.0122483
1.1675000,1.1675000,1.1675000,-0.0052283,-0.0007916,-0.1713672,-0.0052283,-0.0067527,-0.0120838
1.1700000,1.1700000,1.1700000,-0.0051600,-0.0007866,-0.1702495,-0.0051600,-0.0066793,-0.0119219
1.1725000,1.1725000,1.1725000,-0.0050926,-0.0007818,-0.1691416,-0.0050926,-0.0066069,-0.0117625
1.1750000,1.1750000,1.1750000,-0.0050264,-0.0007769,-0.1680434,-0.0050264,-0.0065355,-0.0116055
1.1775000,1.1775000,1.1775000,-0.0049611,-0.0007721,-0.1669546,-0.0049611,-0.0064651,-0.0114508
1.1800000,1.1800000,1.1800000,-0.0048968,-0.0007674,-0.1658753,-0.0048968,-0.0063957,-0.0112986
1.1825000,1.1825000,1.1825000,-0.0048335,-0.0007626,-0.1648053,-0.0048335,-0.0063272,-0.0111487
1.1850000,1.1850000,1.1850000,-0.0047712,-0.0007579,-0.1637446,-0.0047712,-0.0062597,-0.0110010
1.1875000,1.1875000,1.1875000,-0.0047098,-0.0007533,-0.1626929,-0.0047098,-0.0061930,-0.0108556
1.1900000,1.1900000,1.1900000,-0.0046493,-0.0007487,-0.1616503,-0.0046493,-0.0061273,-0.0107124
1.1925000,1.1925000,1.1925000,-0.0045897,-0.0007441,-0.1606167,-0.0045897,-0.0060624,-0.0105714
1.1950000,1.1950000,1.1950000,-0.0045310,-0.0007396,-0.1595918,-0.0045310,-0.0059985,-0.0104324
1.1975000,1.1975000,1.1975000,-0.0044732,-0.0007351,-0.1585757,-0.0044732,-0.0059353,-0.0102956
1.2000000,1.2000000,1.2000000,-0.0044162,-0.0007306,-0.1575683,-0.0044162,-0.0058731,-0.0101608
1.2025000,1.2025000,1.2025000,-0.0043601,-0.0007262,-0.1565694,-0.0043601,-0.0058116,-0.0100281
1.2050000,1.2050000,1.2050000,-0.0043049,-0.0007218,-0.1555790,-0.0043049,-0.0057510,-0.0098973
1.2075000,1.2075000,1.2075000,-0.0042504,-0.0007174,-0.1545969,-0.0042504,-0.0056912,-0.0097685
1.2100000,1.2100000,1.2100000,-0.0041968,-0.0007131,-0.1536231,-0.0041968,-0.0056322,-0.0096415
1.2125000,1.2125000,1.2125000,-0.0041439,-0.0007088,-0.1526576,-0.0041439,-0.0055739,-0.0095165
1.2150000,1.2150000,1.2150000,-0.0040918,-0.0007045,-0.1517001,-0.0040918,-0.0055164,-0.0093933
1.2175000,1.2175000,1.2175000,-0.0040405,-0.0007003,-0.1507507,-0.0040405,-0.0054597,-0.0092720
1.2200000,1.2200000,1.2200000,-0.0039899,-0.0006961,-0.1498092,-0.0039899,-0.0054038,-0.0091524
1.2225000,1.2225000,1.2225000,-0.0039401,-0.0006919,-0.1488756,-0.0039401,-0.0053485,-0.0090346
1.2250000,1.2250000,1.2250000,-0.0038910,-0.0006878,-0.1479497,-0.0038910,-0.0052940,-0.0089185
1.2275000,1.2275000,1.2275000,-0.0038426,-0.0006837,-0.1470316,-0.0038426,-0.0052402,-0.0088041
1.2300000,1.2300000,1.2300000,-0.0037950,-0.0006797,-0.1461210,-0.0037950,-0.0051871,-0.0086914
1.2325000,1.2325000,1.2325000,-0.0037480,-0.0006756,-0.1452180,-0.0037480,-0.0051346,-0.0085804
1.2350000,1.2350000,1.2350000,-0.0037016,-0.0006716,-0.1443225,-0.0037016,-0.0050829,-0.0084709
1.2375000,1.2375000,1.2375000,-0.0036560,-0.0006677,-0.1434343,-0.0036560,-0.0050318,-0.0083631
1.2400000,1.2400000,1.2400000,-0.0036110,-0.0006637,-0.1425534,-0.0036110,-0.0049814,-0.0082568
1.2425000,1.2425000,1.2425000,-0.0035667,-0.0006598,-0.1416798,-0.0035667,-0.0049316,-0.0081521
1.2450000,1.2450000,1.2450000,-0.0035230,-0.0006559,-0.1408133,-0.0035230,-0.0048824,-0.0080488
1.2475000,1.2475000,1.2475000,-0.0034799,-0.0006521,-0.1399539,-0.0034799,-0.0048339,-0.0079471
1.2500000,1.2500000,1.2500000,-0.0034374,-0.0006483,-0.1391015,-0.0034374,-0.0047860,-0.0078468
1.2525000,1.2525000,1.2525000,-0.0033956,-0.0006445,-0.1382561,-0.0033956,-0.0047387,-0.0077480
1.2550000,1.2550000,1.2550000,-0.0033543,-0.0006407,-0.1374175,-0.0033543,-0.0046920,-0.0076506
1.2575000,1.2575000,1.2575000,-0.0033136,-0.0006370,-0.1365857,-0.0033136,-0.0046459,-0.0075546
1.2600000,1.2600000,1.2600000,-0.0032735,-0.0006333,-0.1357606,-0.0032735,-0.0046004,-0.0074599
1.2625000,1.2625000,1.2625000,-0.0032340,-0.0006296,-0.1349422,-0.0032340,-0.0045554,-0.0073666
1.2650000,1.2650000,1.2650000,-0.0031950,-0.0006260,-0.1341304,-0.0031950,-0.0045110,-0.0072747
1.2675000,1.2675000,1.2675000,-0.0031566,-0.0006223,-0.1333252,-0.0031566,-0.0044672,-0.0071840
1.2700000,1.2700000,1.2700000,-0.0031187,-0.0006187,-0.1325263,-0.0031187,-0.0044239,-0.0070946
1.2725000,1.2725000,1.2725000,-0.0030814,-0.0006152,-0.1317339,-0.0030814,-0.0043812,-0.0070065
1.2750000,1.2750000,1.2750000,-0.0030445,-0.0006116,-0.1309478,-0.0030445,-0.0043389,-0.0069196
1.2775000,1.2775000,1.2775000,-0.0030082,-0.0006081,-0.1301680,-0.0030082,-0.0042972,-0.0068340
1.2800000,1.2800000,1.2800000,-0.0029724,-0.0006047,-0.1293944,-0.0029724,-0.0042560,-0.0067495
1.2825000,1.2825000,1.2825000,-0.0029371,-0.0006012,-0.1286269,-0.0029371,-0.0042154,-0.0066663
1.2850000,1.2850000,1.2850000,-0.0029022,-0.0005978,-0.1278655,-0.0029022,-0.0041752,-0.0065842
1.2875000,1.2875000,1.2875000,-0.0028679,-0.0005944,-0.1271101,-0.0028679,-0.0041355,-0.0065032
1.2900000,1.2900000,1.2900000,-0.0028340,-0.0005910,-0.1263607,-0.0028340,-0.0040963,-0.0064234
1.2925000,1.2925000,1.2925000,-0.0028006,-0.0005876,-0.1256172,-0.0028006,-0.0040576,-0.0063447
1.2950000,1.2950000,1.2950000,-0.0027677,-0.0005843,-0.1248795,-0.0027677,-0.0040193,-0.0062671
1.2975000,1.2975000,1.2975000,-0.0027352,-0.0005810,-0.1241476,-0.0027352,-0.0039815,-0.0061906
1.3000000,1.3000000,1.3000000,-0.0027031,-0.0005777,-0.1234215,-0.0027031,-0.0039442,-0.0061151
1.3025000,1.3025000,1.3025000,-0.0026715,-0.0005744,-0.1227010,-0.0026715,-0.0039073,-0.0060407
1.3050000,1.3050000,1.3050000,-0.0026404,-0.0005712,-0.1219862,-0.0026404,-0.0038708,-0.0059673
1.3075000,1.3075000,1.3075000,-0.0026096,-0.0005680,-0.1212769,-0.0026096,-0.0038348,-0.0058949
1.3100000,1.3100000,1.3100000,-0.0025793,-0.0005648,-0.1205731,-0.0025793,-0.0037993,-0.0058235
1.3125000,1.3125000,1.3125000,-0.0025494,-0.0005617,-0.1198748,-0.0025494,-0.0037641,-0.0057531
1.3150000,1.3150000,1.3150000,-0.0025198,-0.0005585,-0.1191818,-0.0025198,-0.0037294,-0.0056837
1.3175000,1.3175000,1.3175000,-0.0024907,-0.0005554,-0.1184943,-0.0024907,-0.0036951,-0.0056152
1.3200000,1.3200000,1.3200000,-0.0024620,-0.0005523,-0.1178120,-0.0024620,-0.0036612,-0.0055476
1.3225000,1.3225000,1.3225000,-0.0024337,-0.0005492,-0.1171350,-0.0024337,-0.0036276,-0.0054810
1.3250000,1.3250000,1.3250000,-0.0024057,-0.0005462,-0.1164632,-0.0024057,-0.0035945,-0.0054152
1.3275000,1.3275000,1.3275000,-0.0023781,-0.0005432,-0.1157965,-0.0023781,-0.0035618,-0.0053504
1.3300000,1.3300000,1.3300000,-0.0023509,-0.0005402,-0.1151349,-0.0023509,-0.0035295,-0.0052864
1.3325000,1.3325000,1.3325000,-0.0023241,-0.0005372,-0.1144784,-0.0023241,-0.0034975,-0.0052233
1.3350000,1.3350000,1.3350000,-0.0022976,-0.0005342,-0.1138268,-0.0022976,-0.0034659,-0.0051610
1.3375000,1.3375000,1.3375000,-0.0022714,-0.0005313,-0.1131803,-0.0022714,-0.0034347,-0.0050996
1.3400000,1.3400000,1.3400000,-0.0022456,-0.0005284,-0.1125386,-0.0022456,-0.0034038,-0.0050390
1.3425000,1.3425000,1.3425000,-0.0022202,-0.0005255,-0.1119018,-0.0022202,-0.0033733,-0.0049793
1.3450000,1.3450000,1.3450000,-0.0021951,-0.0005226,-0.1112698,-0.0021951,-0.0033432,-0.0049203
1.3475000,1.3475000,1.3475000,-0.0021703,-0.0005198,-0.1106425,-0.0021703,-0.0033134,-0.0048621
1.3500000,1.3500000,1.3500000,-0.0021458,-0.0005169,-0.1100200,-0.0021458,-0.0032839,-0.0048047
1.3525000,1.3525000,1.3525000,-0.0021217,-0.0005141,-0.1094022,-0.0021217,-0.0032548,-0.0047481
1.3550000,1.3550000,1.3550000,-0.0020979,-0.0005113,-0.1087890,-0.0020979,-0.0032261,-0.0046922
1.3575000,1.3575000,1.3575000,-0.0020744,-0.0005085,-0.1081804,-0.0020744,-0.0031976,-0.0046370
1.3600000,1.3600000,1.3600000,-0.0020512,-0.0005058,-0.1075763,-0.0020512,-0.0031695,-0.0045826
1.3625000,1.3625000,1.3625000,-0.0020283,-0.0005031,-0.1069768,-0.0020283,-0.0031417,-0.0045289
1.3650000,1.3650000,1.3650000,-0.0020057,-0.0005003,-0.1063817,-0.0020057,-0.0031142,-0.0044759
1.3675000,1.3675000,1.3675000,-0.0019834,-0.0004976,-0.1057910,-0.0019834,-0.0030870,-0.0044236
1.3700000,1.3700000,1.3700000,-0.0019614,-0.0004950,-0.1052047,-0.0019614,-0.0030601,-0.0043720
1.3725000,1.3725000,1.3725000,-0.0019397,-0.0004923,-0.1046228,-0.0019397,-0.0030335,-0.0043211
1.3750000,1.3750000,1.3750000,-0.0019182,-0.0004897,-0.1040451,-0.0019182,-0.0030073,-0.0042709
1.3775000,1.3775000,1.3775000,-0.0018971,-0.0004871,-0.1034717,-0.0018971,-0.0029813,-0.0042213
1.3800000,1.3800000,1.3800000,-0.0018762,-0.0004845,-0.1029026,-0.0018762,-0.0029556,-0.0041723
1.3825000,1.3825000,1.3825000,-0.0018555,-0.0004819,-0.1023376,-0.0018555,-0.0029302,-0.0041240
1.3850000,1.3850000,1.3850000,-0.0018352,-0.0004793,-0.1017767,-0.0018352,-0.0029051,-0.0040763
1.3875000,1.3875000,1.3875000,-0.0018151,-0.0004768,-0.1012200,-0.0018151,-0.0028802,-0.0040293
1.3900000,1.3900000,1.3900000,-0.0017952,-0.0004742,-0.1006673,-0.0017952,-0.0028557,-0.0039828
1.3925000,1.3925000,1.3925000,-0.0017756,-0.0004717,-0.1001187,-0.0017756,-0.0028314,-0.0039370
1.3950000,1.3950000,1.3950000,-0.0017563,-0.0004692,-0.0995740,-0.0017563,-0.0028074,-0.0038917
1.3975000,1.3975000,1.3975000,-0.0017372,-0.0004668,-0.0990333,-0.0017372,-0.0027836,-0.0038470
1.4000000,1.4000000,1.4000000,-0.0017183,-0.0004643,-0.0984966,-0.0017183,-0.0027601,-0.0038029
1.4025000,1.4025000,1.4025000,-0.0016997,-0.0004619,-0.0979637,-0.0016997,-0.0027369,-0.0037594
1.4050000,1.4050000,1.4050000,-0.0016814,-0.0004594,-0.0974346,-0.0016814,-0.0027139,-0.0037164
1.4075000,1.4075000,1.4075000,-0.0016632,-0.0004570,-0.0969094,-0.0016632,-0.0026912,-0.0036740
1.4100000,1.4100000,1.4100000,-0.0016453,-0.0004546,-0.0963880,-0.0016453,-0.0026687,-0.0036322
1.4125000,1.4125000,1.4125000,-0.0016276,-0.0004523,-0.0958703,-0.0016276,-0.0026464,-0.0035908
1.4150000,1.4150000,1.4150000,-0.0016101,-0.0004499,-0.0953563,-0.0016101,-0.0026244,-0.0035500
1.4175000,1.4175000,1.4175000,-0.0015929,-0.0004476,-0.0948460,-0.0015929,-0.0026027,-0.0035097
1.4200000,1.4200000,1.4200000,-0.0015758,-0.0004452,-0.0943393,-0.0015758,-0.0025811,-0.0034699
1.4225000,1.4225000,1.4225000,-0.0015590,-0.0004429,-0.0938363,-0.0015590,-0.0025598,-0.0034307
1.4250000,1.4250000,1.4250000,-0.0015424,-0.0004406,-0.0933368,-0.0015424,-0.0025388,-0.0033919
1.4275000,1.4275000,1.4275000,-0.0015260,-0.0004384,-0.0928409,-0.0015260,-0.0025179,-0.0033536
1.4300000,1.4300000,1.4300000,-0.0015098,-0.0004361,-0.0923485,-0.0015098,-0.0024973,-0.0033158
1.4325000,1.4325000,1.4325000,-0.0014938,-0.0004339,-0.0918596,-0.0014938,-0.0024769,-0.0032785
1.4350000,1.4350000,1.4350000,-0.0014780,-0.0004316,-0.0913742,-0.0014780,-0.0024567,-0.0032416
1.4375000,1.4375000,1.4375000,-0.0014624,-0.0004294,-0.0908922,-0.0014624,-0.0024367,-0.0032052
1.4400000,1.4400000,1.4400000,-0.0014470,-0.0004272,-0.0904135,-0.0014470,-0.0024170,-0.0031693
1.4425000,1.4425000,1.4425000,-0.0014317,-0.0004250,-0.0899383,-0.0014317,-0.0023974,-0.0031338
1.4450000,1.4450000,1.4450000,-0.0014167,-0.0004228,-0.0894664,-0.0014167,-0.0023781,-0.0030987
1.4475000,1.4475000,1.4475000,-0.0014018,-0.0004207,-0.0889977,-0.0014018,-0.0023590,-0.0030641
1.4500000,1.4500000,1.4500000,-0.0013872,-0.0004185,-0.0885324,-0.0013872,-0.0023400,-0.0030300
1.4525000,1.4525000,1.4525000,-0.0013727,-0.0004164,-0.0880703,-0.0013727,-0.0023213,-0.0029962
1.4550000,1.4550000,1.4550000,-0.0013583,-0.0004143,-0.0876114,-0.0013583,-0.0023027,-0.0029629
1.4575000,1.4575000,1.4575000,-0.0013442,-0.0004122,-0.0871558,-0.0013442,-0.0022844,-0.0029300
1.4600000,1.4600000,1.4600000,-0.0013302,-0.0004101,-0.0867032,-0.0013302,-0.0022662,-0.0028975
1.4625000,1.4625000,1.4625000,-0.0013164,-0.0004080,-0.0862539,-0.0013164,-0.0022482,-0.0028654
1.4650000,1.4650000,1.4650000,-0.0013028,-0.0004060,-0.0858076,-0.0013028,-0.0022305,-0.0028337
1.4675000,1.4675000,1.4675000,-0.0012893,-0.0004039,-0.0853644,-0.0012893,-0.0022129,-0.0028023
1.4700000,1.4700000,1.4700000,-0.0012760,-0.0004019,-0.0849243,-0.0012760,-0.0021954,-0.0027714
1.4725000,1.4725000,1.4725000,-0.0012629,-0.0003999,-0.0844872,-0.0012629,-0.0021782,-0.0027408
1.4750000,1.4750000,1.4750000,-0.0012499,-0.0003979,-0.0840531,-0.0012499,-0.0021611,-0.0027107
1.4775000,1.4775000,1.4775000,-0.0012370,-0.0003959,-0.0836220,-0.0012370,-0.0021442,-0.0026809
1.4800000,1.4800000,1.4800000,-0.0012244,-0.0003939,-0.0831938,-0.0012244,-0.0021275,-0.0026514
1.4825000,1.4825000,1.4825000,-0.0012118,-0.0003920,-0.0827686,-0.0012118,-0.0021110,-0.0026223
1.4850000,1.4850000,1.4850000,-0.0011995,-0.0003900,-0.0823462,-0.0011995,-0.0020946,-0.0025936
1.4875000,1.4875000,1.4875000,-0.0011872,-0.0003881,-0.0819268,-0.0011872,-0.0020784,-0.0025652
1.4900000,1.4900000,1.4900000,-0.0011751,-0.0003861,-0.0815102,-0.0011751,-0.0020623,-0.0025372
1.4925000,1.4925000,1.4925000,-0.0011632,-0.0003842,-0.0810964,-0.0011632,-0.0020464,-0.0025095
1.4950000,1.4950000,1.4950000,-0.0011514,-0.0003823,-0.0806854,-0.0011514,-0.0020307,-0.0024821
1.4975000,1.4975000,1.4975000,-0.0011397,-0.0003804,-0.0802772,-0.0011397,-0.0020151,-0.0024551
1.5000000,1.5000000,1.5000000,-0.0011282,-0.0003786,-0.0798718,-0.0011282,-0.0019997,-0.0024284
1.5025000,1.5025000,1.5025000,-0.0011168,-0.0003767,-0.0794691,-0.0011168,-0.0019845,-0.0024020
1.5050000,1.5050000,1.5050000,-0.0011056,-0.0003749,-0.0790691,-0.0011056,-0.0019694,-0.0023759
1.5075000,1.5075000,1.5075000,-0.0010945,-0.0003730,-0.0786718,-0.0010945,-0.0019544,-0.0023502
1.5100000,1.5100000,1.5100000,-0.0010835,-0.0003712,-0.0782771,-0.0010835,-0.0019396,-0.0023248
1.5125000,1.5125000,1.5125000,-0.0010726,-0.0003694,-0.0778851,-0.0010726,-0.0019249,-0.0022996
1.5150000,1.5150000,1.5150000,-0.0010619,-0.0003676,-0.0774957,-0.0010619,-0.0019104,-0.0022748
1.5175000,1.5175000,1.5175000,-0.0010513,-0.0003658,-0.0771090,-0.0010513,-0.0018961,-0.0022502
1.5200000,1.5200000,1.5200000,-0.0010408,-0.0003640,-0.0767248,-0.0010408,-0.0018818,-0.0022260
1.5225000,1.5225000,1.5225000,-0.0010304,-0.0003622,-0.0763431,-0.0010304,-0.0018677,-0.0022020
1.5250000,1.5250000,1.5250000,-0.0010202,-0.0003605,-0.0759640,-0.0010202,-0.0018538,-0.0021784
1.5275000,1.5275000,1.5275000,-0.0010101,-0.0003587,-0.0755874,-0.0010101,-0.0018400,-0.0021550
1.5300000,1.5300000,1.5300000,-0.0010001,-0.0003570,-0.0752133,-0.0010001,-0.0018263,-0.0021319
1.5325000,1.5325000,1.5325000,-0.0009902,-0.0003553,-0.0748417,-0.0009902,-0.0018128,-0.0021090
1.5350000,1.5350000,1.5350000,-0.0009804,-0.0003536,-0.0744725,-0.0009804,-0.0017993,-0.0020865
1.5375000,1.5375000,1.5375000,-0.0009707,-0.0003519,-0.0741057,-0.0009707,-0.0017861,-0.0020642
1.5400000,1.5400000,1.5400000,-0.0009612,-0.0003502,-0.0737414,-0.0009612,-0.0017729,-0.0020421
1.5425000,1.5425000,1.5425000,-0.0009517,-0.0003485,-0.0733794,-0.0009517,-0.0017599,-0.0020203
1.5450000,1.5450000,1.5450000,-0.0009424,-0.0003468,-0.0730199,-0.0009424,-0.0017470,-0.0019988
1.5475000,1.5475000,1.5475000,-0.0009332,-0.0003452,-0.0726626,-0.0009332,-0.0017342,-0.0019775
1.5500000,1.5500000,1.5500000,-0.0009240,-0.0003435,-0.0723077,-0.0009240,-0.0017215,-0.0019565
1.5525000,1.5525000,1.5525000,-0.0009150,-0.0003419,-0.0719552,-0.0009150,-0.0017090,-0.0019357
1.5550000,1.5550000,1.5550000,-0.0009061,-0.0003402,-0.0716049,-0.0009061,-0.0016966,-0.0019152
1.5575000,1.5575000,1.5575000,-0.0008973,-0.0003386,-0.0712569,-0.0008973,-0.0016843,-0.0018949
1.5600000,1.5600000,1.5600000,-0.0008886,-0.0003370,-0.0709111,-0.0008886,-0.0016721,-0.0018748
1.5625000,1.5625000,1.5625000,-0.0008800,-0.0003354,-0.0705676,-0.0008800,-0.0016601,-0.0018550
1.5650000,1.5650000,1.5650000,-0.0008715,-0.0003338,-0.0702263,-0.0008715,-0.0016481,-0.0018354
1.5675000,1.5675000,1.5675000,-0.0008630,-0.0003323,-0.0698872,-0.0008630,-0.0016363,-0.0018161
1.5700000,1.5700000,1.5700000,-0.0008547,-0.0003307,-0.0695503,-0.0008547,-0.0016246,-0.0017969
1.5725000,1.5725000,1.5725000,-0.0008465,-0.0003291,-0.0692156,-0.0008465,-0.0016129,-0.0017780
1.5750000,1.5750000,1.5750000,-0.0008383,-0.0003276,-0.0688830,-0.0008383,-0.0016014,-0.0017593
1.5775000,1.5775000,1.5775000,-0.0008303,-0.0003260,-0.0685526,-0.0008303,-0.0015900,-0.0017408
1.5800000,1.5800000,1.5800000,-0.0008223,-0.0003245,-0.0682242,-0.0008223,-0.0015788,-0.0017225
1.5825000,1.5825000,1.5825000,-0.0008145,-0.0003230,-0.0678980,-0.0008145,-0.0015676,-0.0017045
1.5850000,1.5850000,1.5850000,-0.0008067,-0.0003215,-0.0675738,-0.0008067,-0.0015565,-0.0016866
1.5875000,1.5875000,1.5875000,-0.0007990,-0.0003200,-0.0672517,-0.0007990,-0.0015455,-0.0016689
1.5900000,1.5900000,1.5900000,-0.0007914,-0.0003185,-0.0669317,-0.0007914,-0.0015346,-0.0016515
1.5925000,1.5925000,1.5925000,-0.0007838,-0.0003170,-0.0666137,-0.0007838,-0.0015239,-0.0016342
1.5950000,1.5950000,1.5950000,-0.0007764,-0.0003155,-0.0662977,-0.0007764,-0.0015132,-0.0016172
1.5975000,1.5975000,1.5975000,-0.0007690,-0.0003141,-0.0659837,-0.0007690,-0.0015026,-0.0016003
