# r[nm],d[nm],daligned[nm],U(d)[kj/mol],V(d)[e/nm],Uslab(d)[kJ/mol],UC(d)[kJ/mol],UK(d)[kJ/mol],UCl(d)[kJ/mol]
0.1825000,0.1825000,0.1825000,1834.8152042,0.1448715,454.9758186,1834.8152042,1155.9854803,inf
0.1850000,0.1850000,0.1850000,1612.0546885,0.1438837,383.3132357,1612.0546885,1014.7390191,inf
0.1875000,0.1875000,0.1875000,1418.3100905,0.1429619,324.1293389,1418.3100905,891.9784094,inf
0.1900000,0.1900000,0.1900000,1249.5416177,0.1420987,275.0157032,1249.5416177,785.1242046,inf
0.1925000,0.1925000,0.1925000,1102.3071386,0.1412863,234.0762353,1102.3071386,691.9789993,inf
0.1950000,0.1950000,0.1950000,973.6690556,0.1405180,199.8084058,973.6690556,610.6678225,inf
0.1975000,0.1975000,0.1975000,861.1162898,0.1397873,171.0141500,861.1162898,539.5882567,inf
0.2000000,0.2000000,0.2000000,762.4988925,0.1390889,146.7325296,762.4988925,477.3686318,inf
0.2025000,0.2025000,0.2025000,675.9731571,0.1384175,126.1884756,675.9731571,422.8329350,inf
0.2050000,0.2050000,0.2050000,599.9554772,0.1377688,108.7535063,599.9554772,374.9713122,inf
0.2075000,0.2075000,0.2075000,533.0834978,0.1371387,93.9154249,533.0834978,332.9152344,inf
0.2100000,0.2100000,0.2100000,474.1833608,0.1365235,81.2547960,474.1833608,295.9165599,inf
0.2125000,0.2125000,0.2125000,422.2420456,0.1359203,70.4265667,422.2420456,263.3298552,1807.0362240
0.2150000,0.2150000,0.2150000,376.3839800,0.1353260,61.1456076,376.3839800,234.5974455,1613.9934339
0.2175000,0.2175000,0.2175000,335.8512315,0.1347383,53.1752412,335.8512315,209.2367554,1442.9516611
0.2200000,0.2200000,0.2200000,299.9867082,0.1341549,46.3180650,299.9867082,186.8295692,1291.2226517
0.2225000,0.2225000,0.2225000,268.2198883,0.1335740,40.4085762,268.2198883,167.0128836,1156.4705230
0.2250000,0.2250000,0.2250000,240.0546799,0.1329934,35.3072730,240.0546799,149.4709749,1036.6624782
0.2275000,0.2275000,0.2275000,215.0590344,0.1324076,30.8960139,215.0590344,133.9281259,930.0268165
0.2300000,0.2300000,0.2300000,192.8558004,0.1317811,27.0744439,192.8558004,120.1413947,835.0171054
0.2325000,0.2325000,0.2325000,173.1138038,0.1309396,23.7572740,173.1138038,107.8935227,750.2815660
0.2350000,0.2350000,0.2350000,155.5378129,0.1292872,20.8721572,155.5378129,96.9877004,674.6368712
0.2375000,0.2375000,0.2375000,139.8578440,0.1254280,18.3579044,139.8578440,87.2468472,607.0454562
0.2400000,0.2400000,0.2400000,125.8231445,0.1172269,16.1628326,125.8231445,78.5179147,546.5865206
0.2425000,0.2425000,0.2425000,113.2087799,0.1030392,14.2431419,113.2087799,70.6769226,492.2717165
0.2450000,0.2450000,0.2450000,101.8330113,0.0835369,12.5613470,101.8330113,63.6284359,442.2483194
0.2475000,0.2475000,0.2475000,91.5667214,0.0618448,11.0849156,91.5667214,57.2980435,395.3976990
0.2500000,0.2500000,0.2500000,82.3205893,0.0414481,9.7852967,82.3205893,51.6226382,352.9907901
0.2525000,0.2525000,0.2525000,74.0214445,0.0243706,8.6374054,74.0214445,46.5436087,315.2521158
0.2550000,0.2550000,0.2550000,66.5964572,0.0110499,7.6194442,66.5964572,42.0041989,281.7584610
0.2575000,0.2575000,0.2575000,59.9691893,0.0010541,6.7128385,59.9691893,37.9495799,252.0291599
0.2600000,0.2600000,0.2600000,54.0618024,-0.0063088,5.9021077,54.0618024,34.3279103,225.6250510
0.2625000,0.2625000,0.2625000,48.7983855,-0.0116968,5.1745721,48.7983855,31.0913672,202.1578030
0.2650000,0.2650000,0.2650000,44.1074575,-0.0156421,4.5198649,44.1074575,28.1967760,181.2861269
0.2675000,0.2675000,0.2675000,39.9234056,-0.0185454,3.9292708,39.9234056,25.6057976,162.7103209
0.2700000,0.2700000,0.2700000,36.1871194,-0.0206964,3.3950064,36.1871194,23.2847669,146.1670687
0.2725000,0.2725000,0.2725000,32.8460946,-0.0222981,2.9096237,32.8460946,21.2043063,131.4248080
0.2750000,0.2750000,0.2750000,29.8541960,-0.0234884,2.4657081,29.8541960,19.3388201,118.2796745
0.2775000,0.2775000,0.2775000,27.1712078,-0.0243582,2.0559430,27.1712078,17.6659523,106.5519591
0.2800000,0.2800000,0.2800000,24.7622590,-0.0249664,1.6734916,24.7622590,16.1660583,96.0830107
0.2825000,0.2825000,0.2825000,22.5971920,-0.0253515,1.3125532,22.5971920,14.8217235,86.7325264
0.2850000,0.2850000,0.2850000,20.6499204,-0.0255417,0.9688871,20.6499204,13.6173456,78.3761831
0.2875000,0.2875000,0.2875000,18.8978122,-0.0255616,0.6400965,18.8978122,12.5387878,70.9035795
0.2900000,0.2900000,0.2900000,17.3211190,-0.0254385,0.3255441,17.3211190,11.5731065,64.2164700
0.2925000,0.2925000,0.2925000,15.9024660,-0.0252057,0.0259246,15.9024660,10.7083511,58.2272761
0.2950000,0.2950000,0.2950000,14.6264112,-0.0249054,-0.2573431,14.6264112,9.9334329,52.8578601
0.2975000,0.2975000,0.2975000,13.4790763,-0.0245908,-0.5227009,13.4790763,9.2380557,48.0385304
0.3000000,0.3000000,0.3000000,12.4478492,-0.0243256,-0.7688817,12.4478492,8.6126937,43.7072384
0.3025000,0.3025000,0.3025000,11.5211541,-0.0241832,-0.9951521,11.5211541,8.0485990,39.8089115
0.3050000,0.3050000,0.3050000,10.6882857,-0.0242432,-1.2013942,10.6882857,7.5378179,36.2948681
0.3075000,0.3075000,0.3075000,9.9393021,-0.0245864,-1.3880724,9.9393021,7.0732005,33.1222699
0.3100000,0.3100000,0.3100000,9.2649657,-0.0252881,-1.5561264,9.2649657,6.6483958,30.2535835
0.3125000,0.3125000,0.3125000,8.6567198,-0.0264096,-1.7068473,8.6567198,6.2578323,27.6560439
0.3150000,0.3150000,0.3150000,8.1066838,-0.0279906,-1.8417869,8.1066838,5.8966891,25.3011211
0.3175000,0.3175000,0.3175000,7.6076524,-0.0300428,-1.9627249,7.6076524,5.5608605,23.1640002
0.3200000,0.3200000,0.3200000,7.1530899,-0.0325452,-2.0716698,7.1530899,5.2469189,21.2230839
0.3225000,0.3225000,0.3225000,6.7371169,-0.0354428,-2.1708459,6.7371169,4.9520728,19.4595248
0.3250000,0.3250000,0.3250000,6.3544932,-0.0386494,-2.2626351,6.3544932,4.6741200,17.8567959
0.3275000,0.3275000,0.3275000,6.0006000,-0.0420534,-2.3494871,6.0006000,4.4113906,16.4003030
0.3300000,0.3300000,0.3300000,5.6714275,-0.0455268,-2.4338379,5.6714275,4.1626764,15.0770458
0.3325000,0.3325000,0.3325000,5.3635644,-0.0489374,-2.5180532,5.3635644,3.9271444,13.8753261
0.3350000,0.3350000,0.3350000,5.0741896,-0.0521618,-2.6043668,5.0741896,3.7042377,12.7845059
0.3375000,0.3375000,0.3375000,4.8010556,-0.0550983,-2.6947614,4.8010556,3.4935687,11.7948122
0.3400000,0.3400000,0.3400000,4.5424562,-0.0576769,-2.7907756,4.5424562,3.2948187,10.8971880
0.3425000,0.3425000,0.3425000,4.2971684,-0.0598640,-2.8932778,4.2971684,3.1076495,10.0831852
0.3450000,0.3450000,0.3450000,4.0643678,-0.0616614,-3.0022969,4.0643678,2.9316328,9.3448964
0.3475000,0.3475000,0.3475000,3.8435220,-0.0630989,-3.1169831,3.8435220,2.7661908,8.6749161
0.3500000,0.3500000,0.3500000,3.6342767,-0.0642234,-3.2357246,3.6342767,2.6105437,8.0663228
0.3525000,0.3525000,0.3525000,3.4363481,-0.0650865,-3.3563854,3.4363481,2.4636651,7.5126731
0.3550000,0.3550000,0.3550000,3.2494299,-0.0657317,-3.4765958,3.2494299,2.3242541,7.0079986
0.3575000,0.3575000,0.3575000,3.0731147,-0.0661850,-3.5940242,3.0731147,2.1907430,6.5468008
0.3600000,0.3600000,0.3600000,2.9068248,-0.0664465,-3.7065834,2.9068248,2.0613594,6.1240443
0.3625000,0.3625000,0.3625000,2.7497519,-0.0664890,-3.8125556,2.7497519,1.9342507,5.7351477
0.3650000,0.3650000,0.3650000,2.6008149,-0.0662612,-3.9106440,2.6008149,1.8076654,5.3759768
0.3675000,0.3675000,0.3675000,2.4586509,-0.0657006,-3.9999718,2.4586509,1.6801572,5.0428420
0.3700000,0.3700000,0.3700000,2.3216576,-0.0647517,-4.0800450,2.3216576,1.5507678,4.7325005
0.3725000,0.3725000,0.3725000,2.1880968,-0.0633863,-4.1506934,2.1880968,1.4191403,4.4421589
0.3750000,0.3750000,0.3750000,2.0562519,-0.0616202,-4.2120034,2.0562519,1.2855359,4.1694699
0.3775000,0.3775000,0.3775000,1.9246152,-0.0595196,-4.2642518,1.9246152,1.1507521,3.9125148
0.3800000,0.3800000,0.3800000,1.7920664,-0.0571955,-4.3078505,1.7920664,1.0159695,3.6697694
0.3825000,0.3825000,0.3825000,1.6579991,-0.0547864,-4.3433038,1.6579991,0.8825649,3.4400534
0.3850000,0.3850000,0.3850000,1.5223692,-0.0524359,-4.3711754,1.5223692,0.7519320,3.2224694
0.3875000,0.3875000,0.3875000,1.3856536,-0.0502698,-4.3920617,1.3856536,0.6253375,3.0163367
0.3900000,0.3900000,0.3900000,1.2487378,-0.0483798,-4.4065673,1.2487378,0.5038281,2.8211233
0.3925000,0.3925000,0.3925000,1.1127603,-0.0468160,-4.4152819,1.1127603,0.3881882,2.6363739
0.3950000,0.3950000,0.3950000,0.9789509,-0.0455877,-4.4187601,0.9789509,0.2789401,2.4616338
0.3975000,0.3975000,0.3975000,0.8484907,-0.0446713,-4.4175065,0.8484907,0.1763725,2.2963665
0.4000000,0.4000000,0.4000000,0.7224121,-0.0440217,-4.4119679,0.7224121,0.0805839,2.1398741
0.4025000,0.4025000,0.4025000,0.6015438,-0.0435835,-4.4025325,0.6015438,-0.0084727,1.9912328
0.4050000,0.4050000,0.4050000,0.4864942,-0.0433020,-4.3895357,0.4864942,-0.0909515,1.8492623
0.4075000,0.4075000,0.4075000,0.3776645,-0.0431300,-4.3732708,0.3776645,-0.1670866,1.7125480
0.4100000,0.4100000,0.4100000,0.2752774,-0.0430318,-4.3540022,0.2752774,-0.2371755,1.5795227
0.4125000,0.4125000,0.4125000,0.1794101,-0.0429837,-4.3319777,0.1794101,-0.3015697,1.4486024
0.4150000,0.4150000,0.4150000,0.0900260,-0.0429728,-4.3074345,0.0900260,-0.3606687,1.3183525
0.4175000,0.4175000,0.4175000,0.0069975,-0.0429938,-4.2806005,0.0069975,-0.4149121,1.1876509
0.4200000,0.4200000,0.4200000,-0.0698777,-0.0430459,-4.2516884,-0.0698777,-0.4647682,1.0558105
0.4225000,0.4225000,0.4225000,-0.1408683,-0.0431298,-4.2208884,-0.1408683,-0.5107175,0.9226358
0.4250000,0.4250000,0.4250000,-0.2063026,-0.0432449,-4.1883624,-0.2063026,-0.5532320,0.7884048
0.4275000,0.4275000,0.4275000,-0.2665630,-0.0433873,-4.1542409,-0.2665630,-0.5927511,0.6537867
0.4300000,0.4300000,0.4300000,-0.3220762,-0.0435483,-4.1186260,-0.3220762,-0.6296586,0.5197195
0.4325000,0.4325000,0.4325000,-0.3732998,-0.0437144,-4.0815968,-0.3732998,-0.6642629,0.3872780
0.4350000,0.4350000,0.4350000,-0.4207028,-0.0438674,-4.0432176,-0.4207028,-0.6967862,0.2575530
0.4375000,0.4375000,0.4375000,-0.4647421,-0.0439864,-4.0035464,-0.4647421,-0.7273637,0.1315593
0.4400000,0.4400000,0.4400000,-0.5058385,-0.0440495,-3.9626422,-0.5058385,-0.7560511,0.0101760
0.4425000,0.4425000,0.4425000,-0.5443543,-0.0440363,-3.9205698,-0.5443543,-0.7828409,-0.1058839
0.4450000,0.4450000,0.4450000,-0.5805778,-0.0439299,-3.8774034,-0.5805778,-0.8076800,-0.2160806
0.4475000,0.4475000,0.4475000,-0.6147164,-0.0437174,-3.8332277,-0.6147164,-0.8304892,-0.3200400
0.4500000,0.4500000,0.4500000,-0.6468988,-0.0433911,-3.7881370,-0.6468988,-0.8511797,-0.4175386
0.4525000,0.4525000,0.4525000,-0.6771839,-0.0429482,-3.7422340,-0.6771839,-0.8696687,-0.5084864
0.4550000,0.4550000,0.4550000,-0.7055752,-0.0423901,-3.6956272,-0.7055752,-0.8858907,-0.5929109
0.4575000,0.4575000,0.4575000,-0.7320361,-0.0417222,-3.6484286,-0.7320361,-0.8998088,-0.6709422
0.4600000,0.4600000,0.4600000,-0.7565061,-0.0409528,-3.6007513,-0.7565061,-0.9114218,-0.7428000
0.4625000,0.4625000,0.4625000,-0.7789157,-0.0400925,-3.5527071,-0.7789157,-0.9207691,-0.8087799
0.4650000,0.4650000,0.4650000,-0.7992003,-0.0391533,-3.5044047,-0.7992003,-0.9279292,-0.8692385
0.4675000,0.4675000,0.4675000,-0.8173122,-0.0381475,-3.4559482,-0.8173122,-0.9330146,-0.9245761
0.4700000,0.4700000,0.4700000,-0.8332306,-0.0370873,-3.4074358,-0.8332306,-0.9361616,-0.9752174
0.4725000,0.4725000,0.4725000,-0.8469680,-0.0359838,-3.3589593,-0.8469680,-0.9375209,-1.0215911
0.4750000,0.4750000,0.4750000,-0.8585720,-0.0348467,-3.3106031,-0.8585720,-0.9372490,-1.0641097
0.4775000,0.4775000,0.4775000,-0.8681213,-0.0336843,-3.2624448,-0.8681213,-0.9355034,-1.1031522
0.4800000,0.4800000,0.4800000,-0.8757196,-0.0325036,-3.2145543,-0.8757196,-0.9324396,-1.1390504
0.4825000,0.4825000,0.4825000,-0.8814876,-0.0313104,-3.1669944,-0.8814876,-0.9282086,-1.1720809
0.4850000,0.4850000,0.4850000,-0.8855568,-0.0301097,-3.1198210,-0.8855568,-0.9229525,-1.2024618
0.4875000,0.4875000,0.4875000,-0.8880652,-0.0289050,-3.0730835,-0.8880652,-0.9167999,-1.2303548
0.4900000,0.4900000,0.4900000,-0.8891532,-0.0276988,-3.0268249,-0.8891532,-0.9098607,-1.2558714
0.4925000,0.4925000,0.4925000,-0.8889608,-0.0264929,-2.9810825,-0.8889608,-0.9022220,-1.2790807
0.4950000,0.4950000,0.4950000,-0.8876221,-0.0252886,-2.9358885,-0.8876221,-0.8939476,-1.3000210
0.4975000,0.4975000,0.4975000,-0.8852591,-0.0240877,-2.8912697,-0.8852591,-0.8850802,-1.3187107
0.5000000,0.5000000,0.5000000,-0.8819765,-0.0228931,-2.8472490,-0.8819765,-0.8756455,-1.3351601
0.5025000,0.5025000,0.5025000,-0.8778568,-0.0217094,-2.8038448,-0.8778568,-0.8656584,-1.3493815
0.5050000,0.5050000,0.5050000,-0.8729595,-0.0205429,-2.7610722,-0.8729595,-0.8551291,-1.3613977
0.5075000,0.5075000,0.5075000,-0.8673228,-0.0194014,-2.7189427,-0.8673228,-0.8440679,-1.3712470
0.5100000,0.5100000,0.5100000,-0.8609677,-0.0182933,-2.6774652,-0.8609677,-0.8324897,-1.3789853
0.5125000,0.5125000,0.5125000,-0.8539040,-0.0172275,-2.6366456,-0.8539040,-0.8204156,-1.3846864
0.5150000,0.5150000,0.5150000,-0.8461367,-0.0162122,-2.5964880,-0.8461367,-0.8078744,-1.3884405
0.5175000,0.5175000,0.5175000,-0.8376710,-0.0152544,-2.5569939,-0.8376710,-0.7949020,-1.3903525
0.5200000,0.5200000,0.5200000,-0.8285173,-0.0143597,-2.5181633,-0.8285173,-0.7815410,-1.3905388
0.5225000,0.5225000,0.5225000,-0.8186932,-0.0135318,-2.4799946,-0.8186932,-0.7678384,-1.3891245
0.5250000,0.5250000,0.5250000,-0.8082255,-0.0127727,-2.4424848,-0.8082255,-0.7538450,-1.3862387
0.5275000,0.5275000,0.5275000,-0.7971496,-0.0120830,-2.4056296,-0.7971496,-0.7396130,-1.3820090
0.5300000,0.5300000,0.5300000,-0.7855093,-0.0114614,-2.3694238,-0.7855093,-0.7251948,-1.3765556
0.5325000,0.5325000,0.5325000,-0.7733546,-0.0109057,-2.3338611,-0.7733546,-0.7106420,-1.3699852
0.5350000,0.5350000,0.5350000,-0.7607409,-0.0104127,-2.2989346,-0.7607409,-0.6960040,-1.3623875
0.5375000,0.5375000,0.5375000,-0.7477263,-0.0099787,-2.2646367,-0.7477263,-0.6813275,-1.3538324
0.5400000,0.5400000,0.5400000,-0.7343705,-0.0095992,-2.2309593,-0.7343705,-0.6666559,-1.3443710
0.5425000,0.5425000,0.5425000,-0.7207332,-0.0092697,-2.1978936,-0.7207332,-0.6520293,-1.3340378
0.5450000,0.5450000,0.5450000,-0.7068724,-0.0089858,-2.1654308,-0.7068724,-0.6374835,-1.3228549
0.5475000,0.5475000,0.5475000,-0.6928443,-0.0087427,-2.1335615,-0.6928443,-0.6230509,-1.3108367
0.5500000,0.5500000,0.5500000,-0.6787015,-0.0085362,-2.1022761,-0.6787015,-0.6087602,-1.2979951
0.5525000,0.5525000,0.5525000,-0.6644935,-0.0083621,-2.0715650,-0.6644935,-0.5946362,-1.2843433
0.5550000,0.5550000,0.5550000,-0.6502656,-0.0082164,-2.0414182,-0.6502656,-0.5807007,-1.2698991
0.5575000,0.5575000,0.5575000,-0.6360592,-0.0080957,-2.0118257,-0.6360592,-0.5669722,-1.2546876
0.5600000,0.5600000,0.5600000,-0.6219115,-0.0079965,-1.9827775,-0.6219115,-0.5534662,-1.2387415
0.5625000,0.5625000,0.5625000,-0.6078559,-0.0079159,-1.9542636,-0.6078559,-0.5401956,-1.2221017
0.5650000,0.5650000,0.5650000,-0.5939218,-0.0078512,-1.9262740,-0.5939218,-0.5271710,-1.2048166
0.5675000,0.5675000,0.5675000,-0.5801349,-0.0078000,-1.8987985,-0.5801349,-0.5144006,-1.1869409
0.5700000,0.5700000,0.5700000,-0.5665177,-0.0077601,-1.8718273,-0.5665177,-0.5018908,-1.1685343
0.5725000,0.5725000,0.5725000,-0.5530894,-0.0077297,-1.8453505,-0.5530894,-0.4896464,-1.1496599
0.5750000,0.5750000,0.5750000,-0.5398661,-0.0077070,-1.8193582,-0.5398661,-0.4776704,-1.1303827
0.5775000,0.5775000,0.5775000,-0.5268617,-0.0076906,-1.7938408,-0.5268617,-0.4659646,-1.1107683
0.5800000,0.5800000,0.5800000,-0.5140872,-0.0076792,-1.7687886,-0.5140872,-0.4545297,-1.0908816
0.5825000,0.5825000,0.5825000,-0.5015518,-0.0076717,-1.7441923,-0.5015518,-0.4433652,-1.0707857
0.5850000,0.5850000,0.5850000,-0.4892625,-0.0076671,-1.7200426,-0.4892625,-0.4324700,-1.0505412
0.5875000,0.5875000,0.5875000,-0.4772249,-0.0076647,-1.6963302,-0.4772249,-0.4218418,-1.0302056
0.5900000,0.5900000,0.5900000,-0.4654426,-0.0076637,-1.6730461,-0.4654426,-0.4114781,-1.0098326
0.5925000,0.5925000,0.5925000,-0.4539183,-0.0076635,-1.6501815,-0.4539183,-0.4013756,-0.9894721
0.5950000,0.5950000,0.5950000,-0.4426532,-0.0076636,-1.6277276,-0.4426532,-0.3915306,-0.9691700
0.5975000,0.5975000,0.5975000,-0.4316478,-0.0076636,-1.6056759,-0.4316478,-0.3819390,-0.9489678
0.6000000,0.6000000,0.6000000,-0.4209013,-0.0076631,-1.5840180,-0.4209013,-0.3725964,-0.9289034
0.6025000,0.6025000,0.6025000,-0.4104123,-0.0076618,-1.5627456,-0.4104123,-0.3634983,-0.9090102
0.6050000,0.6050000,0.6050000,-0.4001789,-0.0076595,-1.5418507,-0.4001789,-0.3546396,-0.8893181
0.6075000,0.6075000,0.6075000,-0.3901983,-0.0076561,-1.5213253,-0.3901983,-0.3460154,-0.8698535
0.6100000,0.6100000,0.6100000,-0.3804674,-0.0076513,-1.5011618,-0.3804674,-0.3376207,-0.8506392
0.6125000,0.6125000,0.6125000,-0.3709828,-0.0076450,-1.4813524,-0.3709828,-0.3294501,-0.8316948
0.6150000,0.6150000,0.6150000,-0.3617405,-0.0076372,-1.4618899,-0.3617405,-0.3214984,-0.8130372
0.6175000,0.6175000,0.6175000,-0.3527364,-0.0076277,-1.4427669,-0.3527364,-0.3137603,-0.7946806
0.6200000,0.6200000,0.6200000,-0.3439660,-0.0076166,-1.4239763,-0.3439660,-0.3062306,-0.7766366
0.6225000,0.6225000,0.6225000,-0.3354249,-0.0076038,-1.4055111,-0.3354249,-0.2989039,-0.7589147
0.6250000,0.6250000,0.6250000,-0.3271082,-0.0075894,-1.3873646,-0.3271082,-0.2917752,-0.7415223
0.6275000,0.6275000,0.6275000,-0.3190113,-0.0075733,-1.3695301,-0.3190113,-0.2848391,-0.7244652
0.6300000,0.6300000,0.6300000,-0.3111291,-0.0075555,-1.3520011,-0.3111291,-0.2780905,-0.7077473
0.6325000,0.6325000,0.6325000,-0.3034567,-0.0075362,-1.3347712,-0.3034567,-0.2715245,-0.6913713
0.6350000,0.6350000,0.6350000,-0.2959892,-0.0075152,-1.3178342,-0.2959892,-0.2651360,-0.6753385
0.6375000,0.6375000,0.6375000,-0.2887217,-0.0074927,-1.3011841,-0.2887217,-0.2589202,-0.6596491
0.6400000,0.6400000,0.6400000,-0.2816490,-0.0074687,-1.2848149,-0.2816490,-0.2528723,-0.6443023
0.6425000,0.6425000,0.6425000,-0.2747665,-0.0074433,-1.2687208,-0.2747665,-0.2469876,-0.6292965
0.6450000,0.6450000,0.6450000,-0.2680690,-0.0074165,-1.2528962,-0.2680690,-0.2412615,-0.6146291
0.6475000,0.6475000,0.6475000,-0.2615520,-0.0073884,-1.2373355,-0.2615520,-0.2356895,-0.6002972
0.6500000,0.6500000,0.6500000,-0.2552105,-0.0073590,-1.2220332,-0.2552105,-0.2302673,-0.5862969
0.6525000,0.6525000,0.6525000,-0.2490399,-0.0073284,-1.2069843,-0.2490399,-0.2249905,-0.5726243
0.6550000,0.6550000,0.6550000,-0.2430356,-0.0072966,-1.1921833,-0.2430356,-0.2198551,-0.5592746
0.6575000,0.6575000,0.6575000,-0.2371930,-0.0072638,-1.1776254,-0.2371930,-0.2148569,-0.5462430
0.6600000,0.6600000,0.6600000,-0.2315078,-0.0072299,-1.1633056,-0.2315078,-0.2099920,-0.5335243
0.6625000,0.6625000,0.6625000,-0.2259756,-0.0071950,-1.1492191,-0.2259756,-0.2052565,-0.5211130
0.6650000,0.6650000,0.6650000,-0.2205921,-0.0071593,-1.1353611,-0.2205921,-0.2006467,-0.5090034
0.6675000,0.6675000,0.6675000,-0.2153532,-0.0071226,-1.1217271,-0.2153532,-0.1961590,-0.4971898
0.6700000,0.6700000,0.6700000,-0.2102548,-0.0070852,-1.1083127,-0.2102548,-0.1917898,-0.4856663
0.6725000,0.6725000,0.6725000,-0.2052930,-0.0070470,-1.0951133,-0.2052930,-0.1875357,-0.4744269
0.6750000,0.6750000,0.6750000,-0.2004638,-0.0070081,-1.0821249,-0.2004638,-0.1833934,-0.4634655
0.6775000,0.6775000,0.6775000,-0.1957636,-0.0069685,-1.0693430,-0.1957636,-0.1793595,-0.4527760
0.6800000,0.6800000,0.6800000,-0.1911887,-0.0069283,-1.0567638,-0.1911887,-0.1754309,-0.4423524
0.6825000,0.6825000,0.6825000,-0.1867354,-0.0068876,-1.0443831,-0.1867354,-0.1716047,-0.4321886
0.6850000,0.6850000,0.6850000,-0.1824004,-0.0068464,-1.0321971,-0.1824004,-0.1678778,-0.4222786
0.6875000,0.6875000,0.6875000,-0.1781802,-0.0068047,-1.0202019,-0.1781802,-0.1642473,-0.4126164
0.6900000,0.6900000,0.6900000,-0.1740715,-0.0067625,-1.0083940,-0.1740715,-0.1607105,-0.4031960
0.6925000,0.6925000,0.6925000,-0.1700712,-0.0067200,-0.9967695,-0.1700712,-0.1572646,-0.3940116
0.6950000,0.6950000,0.6950000,-0.1661761,-0.0066771,-0.9853250,-0.1661761,-0.1539071,-0.3850574
0.6975000,0.6975000,0.6975000,-0.1623833,-0.0066339,-0.9740569,-0.1623833,-0.1506353,-0.3763276
0.7000000,0.7000000,0.7000000,-0.1586897,-0.0065905,-0.9629619,-0.1586897,-0.1474468,-0.3678167
0.7025000,0.7025000,0.7025000,-0.1550927,-0.0065468,-0.9520367,-0.1550927,-0.1443392,-0.3595191
0.7050000,0.7050000,0.7050000,-0.1515893,-0.0065029,-0.9412780,-0.1515893,-0.1413103,-0.3514293
0.7075000,0.7075000,0.7075000,-0.1481769,-0.0064588,-0.9306827,-0.1481769,-0.1383576,-0.3435422
0.7100000,0.7100000,0.7100000,-0.1448528,-0.0064145,-0.9202476,-0.1448528,-0.1354792,-0.3358524
0.7125000,0.7125000,0.7125000,-0.1416147,-0.0063702,-0.9099697,-0.1416147,-0.1326727,-0.3283548
0.7150000,0.7150000,0.7150000,-0.1384600,-0.0063257,-0.8998461,-0.1384600,-0.1299363,-0.3210445
0.7175000,0.7175000,0.7175000,-0.1353863,-0.0062812,-0.8898738,-0.1353863,-0.1272679,-0.3139165
0.7200000,0.7200000,0.7200000,-0.1323914,-0.0062366,-0.8800500,-0.1323914,-0.1246656,-0.3069661
0.7225000,0.7225000,0.7225000,-0.1294729,-0.0061920,-0.8703720,-0.1294729,-0.1221275,-0.3001886
0.7250000,0.7250000,0.7250000,-0.1266288,-0.0061474,-0.8608371,-0.1266288,-0.1196518,-0.2935795
0.7275000,0.7275000,0.7275000,-0.1238568,-0.0061028,-0.8514425,-0.1238568,-0.1172367,-0.2871342
0.7300000,0.7300000,0.7300000,-0.1211551,-0.0060582,-0.8421858,-0.1211551,-0.1148806,-0.2808485
0.7325000,0.7325000,0.7325000,-0.1185215,-0.0060137,-0.8330643,-0.1185215,-0.1125818,-0.2747182
0.7350000,0.7350000,0.7350000,-0.1159542,-0.0059693,-0.8240756,-0.1159542,-0.1103388,-0.2687390
0.7375000,0.7375000,0.7375000,-0.1134512,-0.0059249,-0.8152173,-0.1134512,-0.1081498,-0.2629071
0.7400000,0.7400000,0.7400000,-0.1110109,-0.0058807,-0.8064871,-0.1110109,-0.1060136,-0.2572184
0.7425000,0.7425000,0.7425000,-0.1086314,-0.0058366,-0.7978824,-0.1086314,-0.1039286,-0.2516692
0.7450000,0.7450000,0.7450000,-0.1063110,-0.0057926,-0.7894013,-0.1063110,-0.1018933,-0.2462557
0.7475000,0.7475000,0.7475000,-0.1040481,-0.0057488,-0.7810413,-0.1040481,-0.0999065,-0.2409744
0.7500000,0.7500000,0.7500000,-0.1018411,-0.0057051,-0.7728003,-0.1018411,-0.0979668,-0.2358217
0.7525000,0.7525000,0.7525000,-0.0996885,-0.0056616,-0.7646762,-0.0996885,-0.0960728,-0.2307942
0.7550000,0.7550000,0.7550000,-0.0975886,-0.0056182,-0.7566669,-0.0975886,-0.0942235,-0.2258886
0.7575000,0.7575000,0.7575000,-0.0955401,-0.0055751,-0.7487704,-0.0955401,-0.0924175,-0.2211016
0.7600000,0.7600000,0.7600000,-0.0935416,-0.0055321,-0.7409847,-0.0935416,-0.0906537,-0.2164300
0.7625000,0.7625000,0.7625000,-0.0915916,-0.0054894,-0.7333079,-0.0915916,-0.0889310,-0.2118709
0.7650000,0.7650000,0.7650000,-0.0896889,-0.0054469,-0.7257379,-0.0896889,-0.0872481,-0.2074213
0.7675000,0.7675000,0.7675000,-0.0878322,-0.0054046,-0.7182730,-0.0878322,-0.0856042,-0.2030781
0.7700000,0.7700000,0.7700000,-0.0860201,-0.0053625,-0.7109113,-0.0860201,-0.0839981,-0.1988387
0.7725000,0.7725000,0.7725000,-0.0842516,-0.0053207,-0.7036511,-0.0842516,-0.0824288,-0.1947003
0.7750000,0.7750000,0.7750000,-0.0825253,-0.0052791,-0.6964905,-0.0825253,-0.0808953,-0.1906602
0.7775000,0.7775000,0.7775000,-0.0808402,-0.0052378,-0.6894279,-0.0808402,-0.0793968,-0.1867158
0.7800000,0.7800000,0.7800000,-0.0791951,-0.0051967,-0.6824615,-0.0791951,-0.0779322,-0.1828646
0.7825000,0.7825000,0.7825000,-0.0775890,-0.0051559,-0.6755898,-0.0775890,-0.0765007,-0.1791042
0.7850000,0.7850000,0.7850000,-0.0760209,-0.0051153,-0.6688110,-0.0760209,-0.0751014,-0.1754321
0.7875000,0.7875000,0.7875000,-0.0744896,-0.0050750,-0.6621237,-0.0744896,-0.0737335,-0.1718462
0.7900000,0.7900000,0.7900000,-0.0729943,-0.0050350,-0.6555263,-0.0729943,-0.0723961,-0.1683440
0.7925000,0.7925000,0.7925000,-0.0715340,-0.0049952,-0.6490173,-0.0715340,-0.0710886,-0.1649235
0.7950000,0.7950000,0.7950000,-0.0701076,-0.0049558,-0.6425951,-0.0701076,-0.0698100,-0.1615825
0.7975000,0.7975000,0.7975000,-0.0687145,-0.0049166,-0.6362583,-0.0687145,-0.0685596,-0.1583189
0.8000000,0.8000000,0.8000000,-0.0673536,-0.0048777,-0.6300055,-0.0673536,-0.0673368,-0.1551308
0.8025000,0.8025000,0.8025000,-0.0660241,-0.0048391,-0.6238353,-0.0660241,-0.0661407,-0.1520162
0.8050000,0.8050000,0.8050000,-0.0647252,-0.0048007,-0.6177463,-0.0647252,-0.0649708,-0.1489732
0.8075000,0.8075000,0.8075000,-0.0634561,-0.0047627,-0.6117372,-0.0634561,-0.0638264,-0.1459999
0.8100000,0.8100000,0.8100000,-0.0622161,-0.0047249,-0.6058066,-0.0622161,-0.0627068,-0.1430945
0.8125000,0.8125000,0.8125000,-0.0610042,-0.0046874,-0.5999533,-0.0610042,-0.0616114,-0.1402554
0.8150000,0.8150000,0.8150000,-0.0598200,-0.0046503,-0.5941760,-0.0598200,-0.0605395,-0.1374808
0.8175000,0.8175000,0.8175000,-0.0586625,-0.0046134,-0.5884734,-0.0586625,-0.0594907,-0.1347691
0.8200000,0.8200000,0.8200000,-0.0575312,-0.0045768,-0.5828444,-0.0575312,-0.0584642,-0.1321187
0.8225000,0.8225000,0.8225000,-0.0564253,-0.0045405,-0.5772877,-0.0564253,-0.0574597,-0.1295280
0.8250000,0.8250000,0.8250000,-0.0553443,-0.0045045,-0.5718023,-0.0553443,-0.0564764,-0.1269955
0.8275000,0.8275000,0.8275000,-0.0542874,-0.0044688,-0.5663868,-0.0542874,-0.0555139,-0.1245198
0.8300000,0.8300000,0.8300000,-0.0532540,-0.0044333,-0.5610403,-0.0532540,-0.0545717,-0.1220993
0.8325000,0.8325000,0.8325000,-0.0522437,-0.0043982,-0.5557615,-0.0522437,-0.0536492,-0.1197328
0.8350000,0.8350000,0.8350000,-0.0512557,-0.0043634,-0.5505495,-0.0512557,-0.0527460,-0.1174188
0.8375000,0.8375000,0.8375000,-0.0502895,-0.0043288,-0.5454032,-0.0502895,-0.0518617,-0.1151561
0.8400000,0.8400000,0.8400000,-0.0493446,-0.0042946,-0.5403215,-0.0493446,-0.0509956,-0.1129433
0.8425000,0.8425000,0.8425000,-0.0484204,-0.0042606,-0.5353034,-0.0484204,-0.0501475,-0.1107793
0.8450000,0.8450000,0.8450000,-0.0475164,-0.0042269,-0.5303478,-0.0475164,-0.0493169,-0.1086628
0.8475000,0.8475000,0.8475000,-0.0466322,-0.0041936,-0.5254540,-0.0466322,-0.0485033,-0.1065927
0.8500000,0.8500000,0.8500000,-0.0457671,-0.0041605,-0.5206207,-0.0457671,-0.0477064,-0.1045677
0.8525000,0.8525000,0.8525000,-0.0449208,-0.0041277,-0.5158472,-0.0449208,-0.0469257,-0.1025868
0.8550000,0.8550000,0.8550000,-0.0440928,-0.0040951,-0.5111325,-0.0440928,-0.0461609,-0.1006490
0.8575000,0.8575000,0.8575000,-0.0432826,-0.0040629,-0.5064756,-0.0432826,-0.0454115,-0.0987530
0.8600000,0.8600000,0.8600000,-0.0424898,-0.0040309,-0.5018757,-0.0424898,-0.0446773,-0.0968980
0.8625000,0.8625000,0.8625000,-0.0417139,-0.0039993,-0.4973319,-0.0417139,-0.0439578,-0.0950829
0.8650000,0.8650000,0.8650000,-0.0409547,-0.0039679,-0.4928434,-0.0409547,-0.0432527,-0.0933068
0.8675000,0.8675000,0.8675000,-0.0402115,-0.0039368,-0.4884093,-0.0402115,-0.0425617,-0.0915687
0.8700000,0.8700000,0.8700000,-0.0394841,-0.0039059,-0.4840287,-0.0394841,-0.0418844,-0.0898677
0.8725000,0.8725000,0.8725000,-0.0387721,-0.0038754,-0.4797009,-0.0387721,-0.0412205,-0.0882028
0.8750000,0.8750000,0.8750000,-0.0380751,-0.0038451,-0.4754250,-0.0380751,-0.0405698,-0.0865733
0.8775000,0.8775000,0.8775000,-0.0373927,-0.0038151,-0.4712004,-0.0373927,-0.0399318,-0.0849783
0.8800000,0.8800000,0.8800000,-0.0367247,-0.0037853,-0.4670261,-0.0367247,-0.0393063,-0.0834169
0.8825000,0.8825000,0.8825000,-0.0360705,-0.0037558,-0.4629015,-0.0360705,-0.0386931,-0.0818884
0.8850000,0.8850000,0.8850000,-0.0354300,-0.0037266,-0.4588258,-0.0354300,-0.0380918,-0.0803919
0.8875000,0.8875000,0.8875000,-0.0348028,-0.0036977,-0.4547982,-0.0348028,-0.0375021,-0.0789267
0.8900000,0.8900000,0.8900000,-0.0341886,-0.0036690,-0.4508181,-0.0341886,-0.0369238,-0.0774921
0.8925000,0.8925000,0.8925000,-0.0335870,-0.0036406,-0.4468848,-0.0335870,-0.0363567,-0.0760874
0.8950000,0.8950000,0.8950000,-0.0329978,-0.0036124,-0.4429975,-0.0329978,-0.0358005,-0.0747118
0.8975000,0.8975000,0.8975000,-0.0324207,-0.0035845,-0.4391556,-0.0324207,-0.0352549,-0.0733646
0.9000000,0.9000000,0.9000000,-0.0318554,-0.0035568,-0.4353585,-0.0318554,-0.0347197,-0.0720452
0.9025000,0.9025000,0.9025000,-0.0313016,-0.0035294,-0.4316054,-0.0313016,-0.0341946,-0.0707530
0.9050000,0.9050000,0.9050000,-0.0307591,-0.0035023,-0.4278957,-0.0307591,-0.0336795,-0.0694873
0.9075000,0.9075000,0.9075000,-0.0302275,-0.0034754,-0.4242289,-0.0302275,-0.0331741,-0.0682475
0.9100000,0.9100000,0.9100000,-0.0297067,-0.0034487,-0.4206042,-0.0297067,-0.0326782,-0.0670330
0.9125000,0.9125000,0.9125000,-0.0291964,-0.0034223,-0.4170210,-0.0291964,-0.0321916,-0.0658431
0.9150000,0.9150000,0.9150000,-0.0286963,-0.0033962,-0.4134789,-0.0286963,-0.0317141,-0.0646775
0.9175000,0.9175000,0.9175000,-0.0282063,-0.0033702,-0.4099771,-0.0282063,-0.0312454,-0.0635354
0.9200000,0.9200000,0.9200000,-0.0277260,-0.0033446,-0.4065150,-0.0277260,-0.0307855,-0.0624163
0.9225000,0.9225000,0.9225000,-0.0272553,-0.0033191,-0.4030923,-0.0272553,-0.0303340,-0.0613198
0.9250000,0.9250000,0.9250000,-0.0267939,-0.0032939,-0.3997082,-0.0267939,-0.0298909,-0.0602453
0.9275000,0.9275000,0.9275000,-0.0263417,-0.0032689,-0.3963622,-0.0263417,-0.0294559,-0.0591923
0.9300000,0.9300000,0.9300000,-0.0258984,-0.0032442,-0.3930538,-0.0258984,-0.0290288,-0.0581603
0.9325000,0.9325000,0.9325000,-0.0254638,-0.0032196,-0.3897824,-0.0254638,-0.0286095,-0.0571488
0.9350000,0.9350000,0.9350000,-0.0250377,-0.0031953,-0.3865476,-0.0250377,-0.0281979,-0.0561574
0.9375000,0.9375000,0.9375000,-0.0246200,-0.0031713,-0.3833487,-0.0246200,-0.0277937,-0.0551857
0.9400000,0.9400000,0.9400000,-0.0242104,-0.0031474,-0.3801854,-0.0242104,-0.0273967,-0.0542331
0.9425000,0.9425000,0.9425000,-0.0238088,-0.0031238,-0.3770571,-0.0238088,-0.0270070,-0.0532993
0.9450000,0.9450000,0.9450000,-0.0234150,-0.0031004,-0.3739634,-0.0234150,-0.0266242,-0.0523838
0.9475000,0.9475000,0.9475000,-0.0230288,-0.0030772,-0.3709037,-0.0230288,-0.0262482,-0.0514863
0.9500000,0.9500000,0.9500000,-0.0226501,-0.0030542,-0.3678775,-0.0226501,-0.0258789,-0.0506063
0.9525000,0.9525000,0.9525000,-0.0222786,-0.0030314,-0.3648845,-0.0222786,-0.0255162,-0.0497434
0.9550000,0.9550000,0.9550000,-0.0219142,-0.0030088,-0.3619241,-0.0219142,-0.0251599,-0.0488973
0.9575000,0.9575000,0.9575000,-0.0215569,-0.0029865,-0.3589960,-0.0215569,-0.0248099,-0.0480676
0.9600000,0.9600000,0.9600000,-0.0212063,-0.0029643,-0.3560996,-0.0212063,-0.0244660,-0.0472540
0.9625000,0.9625000,0.9625000,-0.0208624,-0.0029424,-0.3532346,-0.0208624,-0.0241281,-0.0464560
0.9650000,0.9650000,0.9650000,-0.0205250,-0.0029207,-0.3504004,-0.0205250,-0.0237962,-0.0456734
0.9675000,0.9675000,0.9675000,-0.0201940,-0.0028991,-0.3475968,-0.0201940,-0.0234700,-0.0449057
0.9700000,0.9700000,0.9700000,-0.0198693,-0.0028778,-0.3448233,-0.0198693,-0.0231495,-0.0441528
0.9725000,0.9725000,0.9725000,-0.0195506,-0.0028566,-0.3420794,-0.0195506,-0.0228344,-0.0434142
0.9750000,0.9750000,0.9750000,-0.0192380,-0.0028357,-0.3393648,-0.0192380,-0.0225249,-0.0426897
0.9775000,0.9775000,0.9775000,-0.0189312,-0.0028149,-0.3366791,-0.0189312,-0.0222206,-0.0419789
0.9800000,0.9800000,0.9800000,-0.0186301,-0.0027943,-0.3340219,-0.0186301,-0.0219216,-0.0412816
0.9825000,0.9825000,0.9825000,-0.0183346,-0.0027740,-0.3313928,-0.0183346,-0.0216276,-0.0405975
0.9850000,0.9850000,0.9850000,-0.0180445,-0.0027538,-0.3287914,-0.0180445,-0.0213386,-0.0399262
0.9875000,0.9875000,0.9875000,-0.0177599,-0.0027337,-0.3262174,-0.0177599,-0.0210546,-0.0392676
0.9900000,0.9900000,0.9900000,-0.0174805,-0.0027139,-0.3236704,-0.0174805,-0.0207753,-0.0386213
0.9925000,0.9925000,0.9925000,-0.0172062,-0.0026943,-0.3211501,-0.0172062,-0.0205007,-0.0379871
0.9950000,0.9950000,0.9950000,-0.0169370,-0.0026748,-0.3186561,-0.0169370,-0.0202307,-0.0373647
0.9975000,0.9975000,0.9975000,-0.0166727,-0.0026555,-0.3161881,-0.0166727,-0.0199653,-0.0367538
1.0000000,1.0000000,1.0000000,-0.0164132,-0.0026364,-0.3137457,-0.0164132,-0.0197043,-0.0361543
1.0025000,1.0025000,1.0025000,-0.0161584,-0.0026175,-0.3113286,-0.0161584,-0.0194476,-0.0355659
1.0050000,1.0050000,1.0050000,-0.0159083,-0.0025987,-0.3089364,-0.0159083,-0.0191951,-0.0349884
1.0075000,1.0075000,1.0075000,-0.0156627,-0.0025801,-0.3065689,-0.0156627,-0.0189469,-0.0344215
1.0100000,1.0100000,1.0100000,-0.0154215,-0.0025617,-0.3042257,-0.0154215,-0.0187027,-0.0338650
1.0125000,1.0125000,1.0125000,-0.0151847,-0.0025434,-0.3019064,-0.0151847,-0.0184625,-0.0333187
1.0150000,1.0150000,1.0150000,-0.0149521,-0.0025253,-0.2996109,-0.0149521,-0.0182262,-0.0327824
1.0175000,1.0175000,1.0175000,-0.0147237,-0.0025074,-0.2973388,-0.0147237,-0.0179938,-0.0322559
1.0200000,1.0200000,1.0200000,-0.0144994,-0.0024896,-0.2950898,-0.0144994,-0.0177652,-0.0317389
1.0225000,1.0225000,1.0225000,-0.0142791,-0.0024720,-0.2928635,-0.0142791,-0.0175403,-0.0312313
1.0250000,1.0250000,1.0250000,-0.0140626,-0.0024545,-0.2906598,-0.0140626,-0.0173190,-0.0307329
1.0275000,1.0275000,1.0275000,-0.0138501,-0.0024372,-0.2884783,-0.0138501,-0.0171012,-0.0302435
1.0300000,1.0300000,1.0300000,-0.0136412,-0.0024201,-0.2863187,-0.0136412,-0.0168870,-0.0297629
1.0325000,1.0325000,1.0325000,-0.0134361,-0.0024031,-0.2841808,-0.0134361,-0.0166762,-0.0292910
1.0350000,1.0350000,1.0350000,-0.0132346,-0.0023863,-0.2820643,-0.0132346,-0.0164687,-0.0288275
1.0375000,1.0375000,1.0375000,-0.0130366,-0.0023696,-0.2799689,-0.0130366,-0.0162646,-0.0283723
1.0400000,1.0400000,1.0400000,-0.0128420,-0.0023531,-0.2778944,-0.0128420,-0.0160637,-0.0279252
1.0425000,1.0425000,1.0425000,-0.0126509,-0.0023367,-0.2758405,-0.0126509,-0.0158659,-0.0274861
1.0450000,1.0450000,1.0450000,-0.0124631,-0.0023204,-0.2738069,-0.0124631,-0.0156713,-0.0270547
1.0475000,1.0475000,1.0475000,-0.0122785,-0.0023043,-0.2717933,-0.0122785,-0.0154797,-0.0266310
1.0500000,1.0500000,1.0500000,-0.0120972,-0.0022884,-0.2697997,-0.0120972,-0.0152911,-0.0262148
1.0525000,1.0525000,1.0525000,-0.0119189,-0.0022726,-0.2678256,-0.0119189,-0.0151055,-0.0258060
1.0550000,1.0550000,1.0550000,-0.0117438,-0.0022569,-0.2658708,-0.0117438,-0.0149227,-0.0254043
1.0575000,1.0575000,1.0575000,-0.0115716,-0.0022414,-0.2639352,-0.0115716,-0.0147428,-0.0250096
1.0600000,1.0600000,1.0600000,-0.0114024,-0.0022260,-0.2620184,-0.0114024,-0.0145656,-0.0246219
1.0625000,1.0625000,1.0625000,-0.0112361,-0.0022107,-0.2601203,-0.0112361,-0.0143912,-0.0242410
1.0650000,1.0650000,1.0650000,-0.0110727,-0.0021956,-0.2582406,-0.0110727,-0.0142195,-0.0238666
1.0675000,1.0675000,1.0675000,-0.0109120,-0.0021806,-0.2563792,-0.0109120,-0.0140504,-0.0234988
1.0700000,1.0700000,1.0700000,-0.0107540,-0.0021658,-0.2545356,-0.0107540,-0.0138838,-0.0231374
1.0725000,1.0725000,1.0725000,-0.0105987,-0.0021510,-0.2527099,-0.0105987,-0.0137199,-0.0227822
1.0750000,1.0750000,1.0750000,-0.0104461,-0.0021364,-0.2509016,-0.0104461,-0.0135584,-0.0224331
1.0775000,1.0775000,1.0775000,-0.0102960,-0.0021220,-0.2491107,-0.0102960,-0.0133993,-0.0220901
1.0800000,1.0800000,1.0800000,-0.0101484,-0.0021076,-0.2473370,-0.0101484,-0.0132426,-0.0217530
1.0825000,1.0825000,1.0825000,-0.0100033,-0.0020934,-0.2455801,-0.0100033,-0.0130883,-0.0214216
1.0850000,1.0850000,1.0850000,-0.0098606,-0.0020793,-0.2438399,-0.0098606,-0.0129363,-0.0210959
1.0875000,1.0875000,1.0875000,-0.0097203,-0.0020653,-0.2421163,-0.0097203,-0.0127866,-0.0207758
1.0900000,1.0900000,1.0900000,-0.0095824,-0.0020515,-0.2404090,-0.0095824,-0.0126391,-0.0204611
1.0925000,1.0925000,1.0925000,-0.0094467,-0.0020378,-0.2387178,-0.0094467,-0.0124938,-0.0201517
1.0950000,1.0950000,1.0950000,-0.0093133,-0.0020241,-0.2370425,-0.0093133,-0.0123507,-0.0198476
1.0975000,1.0975000,1.0975000,-0.0091821,-0.0020107,-0.2353830,-0.0091821,-0.0122096,-0.0195487
1.1000000,1.1000000,1.1000000,-0.0090530,-0.0019973,-0.2337390,-0.0090530,-0.0120707,-0.0192548
1.1025000,1.1025000,1.1025000,-0.0089261,-0.0019840,-0.2321104,-0.0089261,-0.0119337,-0.0189658
1.1050000,1.1050000,1.1050000,-0.0088012,-0.0019709,-0.2304970,-0.0088012,-0.0117988,-0.0186817
1.1075000,1.1075000,1.1075000,-0.0086784,-0.0019578,-0.2288986,-0.0086784,-0.0116659,-0.0184024
1.1100000,1.1100000,1.1100000,-0.0085576,-0.0019449,-0.2273151,-0.0085576,-0.0115349,-0.0181277
1.1125000,1.1125000,1.1125000,-0.0084387,-0.0019321,-0.2257462,-0.0084387,-0.0114058,-0.0178576
1.1150000,1.1150000,1.1150000,-0.0083218,-0.0019194,-0.2241918,-0.0083218,-0.0112785,-0.0175920
1.1175000,1.1175000,1.1175000,-0.0082068,-0.0019068,-0.2226518,-0.0082068,-0.0111531,-0.0173308
1.1200000,1.1200000,1.1200000,-0.0080937,-0.0018943,-0.2211259,-0.0080937,-0.0110295,-0.0170740
1.1225000,1.1225000,1.1225000,-0.0079823,-0.0018819,-0.2196140,-0.0079823,-0.0109076,-0.0168214
1.1250000,1.1250000,1.1250000,-0.0078728,-0.0018697,-0.2181159,-0.0078728,-0.0107875,-0.0165730
1.1275000,1.1275000,1.1275000,-0.0077650,-0.0018575,-0.2166315,-0.0077650,-0.0106691,-0.0163287
1.1300000,1.1300000,1.1300000,-0.0076589,-0.0018454,-0.2151607,-0.0076589,-0.0105524,-0.0160884
1.1325000,1.1325000,1.1325000,-0.0075545,-0.0018335,-0.2137032,-0.0075545,-0.0104374,-0.0158520
1.1350000,1.1350000,1.1350000,-0.0074518,-0.0018216,-0.2122589,-0.0074518,-0.0103240,-0.0156195
1.1375000,1.1375000,1.1375000,-0.0073508,-0.0018098,-0.2108277,-0.0073508,-0.0102121,-0.0153908
1.1400000,1.1400000,1.1400000,-0.0072513,-0.0017982,-0.2094094,-0.0072513,-0.0101019,-0.0151658
1.1425000,1.1425000,1.1425000,-0.0071534,-0.0017866,-0.2080039,-0.0071534,-0.0099931,-0.0149445
1.1450000,1.1450000,1.1450000,-0.0070570,-0.0017751,-0.2066110,-0.0070570,-0.0098859,-0.0147268
1.1475000,1.1475000,1.1475000,-0.0069622,-0.0017637,-0.2052306,-0.0069622,-0.0097802,-0.0145126
1.1500000,1.1500000,1.1500000,-0.0068688,-0.0017525,-0.2038626,-0.0068688,-0.0096760,-0.0143019
1.1525000,1.1525000,1.1525000,-0.0067770,-0.0017413,-0.2025067,-0.0067770,-0.0095732,-0.0140946
1.1550000,1.1550000,1.1550000,-0.0066865,-0.0017302,-0.2011629,-0.0066865,-0.0094718,-0.0138906
1.1575000,1.1575000,1.1575000,-0.0065975,-0.0017192,-0.1998311,-0.0065975,-0.0093718,-0.0136899
1.1600000,1.1600000,1.1600000,-0.0065098,-0.0017083,-0.1985110,-0.0065098,-0.0092732,-0.0134924
1.1625000,1.1625000,1.1625000,-0.0064235,-0.0016975,-0.1972026,-0.0064235,-0.0091760,-0.0132980
1.1650000,1.1650000,1.1650000,-0.0063386,-0.0016867,-0.1959058,-0.0063386,-0.0090800,-0.0131068
1.1675000,1.1675000,1.1675000,-0.0062549,-0.0016761,-0.1946204,-0.0062549,-0.0089854,-0.0129186
1.1700000,1.1700000,1.1700000,-0.0061726,-0.0016655,-0.1933462,-0.0061726,-0.0088920,-0.0127334
1.1725000,1.1725000,1.1725000,-0.0060915,-0.0016551,-0.1920833,-0.0060915,-0.0087999,-0.0125512
1.1750000,1.1750000,1.1750000,-0.0060117,-0.0016447,-0.1908313,-0.0060117,-0.0087091,-0.0123718
1.1775000,1.1775000,1.1775000,-0.0059331,-0.0016344,-0.1895903,-0.0059331,-0.0086195,-0.0121953
1.1800000,1.1800000,1.1800000,-0.0058557,-0.0016242,-0.1883601,-0.0058557,-0.0085310,-0.0120215
1.1825000,1.1825000,1.1825000,-0.0057794,-0.0016141,-0.1871405,-0.0057794,-0.0084438,-0.0118505
1.1850000,1.1850000,1.1850000,-0.0057043,-0.0016040,-0.1859315,-0.0057043,-0.0083577,-0.0116822
1.1875000,1.1875000,1.1875000,-0.0056304,-0.0015941,-0.1847330,-0.0056304,-0.0082728,-0.0115165
1.1900000,1.1900000,1.1900000,-0.0055576,-0.0015842,-0.1835448,-0.0055576,-0.0081890,-0.0113534
1.1925000,1.1925000,1.1925000,-0.0054859,-0.0015744,-0.1823669,-0.0054859,-0.0081063,-0.0111929
1.1950000,1.1950000,1.1950000,-0.0054153,-0.0015646,-0.1811990,-0.0054153,-0.0080247,-0.0110349
1.1975000,1.1975000,1.1975000,-0.0053457,-0.0015550,-0.1800412,-0.0053457,-0.0079441,-0.0108793
1.2000000,1.2000000,1.2000000,-0.0052772,-0.0015454,-0.1788932,-0.0052772,-0.0078647,-0.0107261
1.2025000,1.2025000,1.2025000,-0.0052097,-0.0015360,-0.1777551,-0.0052097,-0.0077862,-0.0105753
1.2050000,1.2050000,1.2050000,-0.0051432,-0.0015265,-0.1766266,-0.0051432,-0.0077088,-0.0104269
1.2075000,1.2075000,1.2075000,-0.0050777,-0.0015172,-0.1755077,-0.0050777,-0.0076324,-0.0102807
1.2100000,1.2100000,1.2100000,-0.0050132,-0.0015079,-0.1743983,-0.0050132,-0.0075570,-0.0101368
1.2125000,1.2125000,1.2125000,-0.0049496,-0.0014988,-0.1732983,-0.0049496,-0.0074825,-0.0099951
1.2150000,1.2150000,1.2150000,-0.0048870,-0.0014896,-0.1722076,-0.0048870,-0.0074090,-0.0098555
1.2175000,1.2175000,1.2175000,-0.0048253,-0.0014806,-0.1711260,-0.0048253,-0.0073365,-0.0097182
1.2200000,1.2200000,1.2200000,-0.0047645,-0.0014716,-0.1700535,-0.0047645,-0.0072649,-0.0095829
1.2225000,1.2225000,1.2225000,-0.0047046,-0.0014627,-0.1689901,-0.0047046,-0.0071942,-0.0094496
1.2250000,1.2250000,1.2250000,-0.0046456,-0.0014539,-0.1679355,-0.0046456,-0.0071244,-0.0093185
1.2275000,1.2275000,1.2275000,-0.0045875,-0.0014452,-0.1668897,-0.0045875,-0.0070555,-0.0091893
1.2300000,1.2300000,1.2300000,-0.0045302,-0.0014365,-0.1658527,-0.0045302,-0.0069874,-0.0090620
1.2325000,1.2325000,1.2325000,-0.0044737,-0.0014278,-0.1648242,-0.0044737,-0.0069203,-0.0089367
1.2350000,1.2350000,1.2350000,-0.0044181,-0.0014193,-0.1638043,-0.0044181,-0.0068539,-0.0088133
1.2375000,1.2375000,1.2375000,-0.0043633,-0.0014108,-0.1627928,-0.0043633,-0.0067885,-0.0086917
1.2400000,1.2400000,1.2400000,-0.0043092,-0.0014024,-0.1617897,-0.0043092,-0.0067238,-0.0085720
1.2425000,1.2425000,1.2425000,-0.0042560,-0.0013940,-0.1607948,-0.0042560,-0.0066599,-0.0084541
1.2450000,1.2450000,1.2450000,-0.0042035,-0.0013858,-0.1598082,-0.0042035,-0.0065969,-0.0083379
1.2475000,1.2475000,1.2475000,-0.0041518,-0.0013775,-0.1588296,-0.0041518,-0.0065346,-0.0082235
1.2500000,1.2500000,1.2500000,-0.0041008,-0.0013694,-0.1578590,-0.0041008,-0.0064731,-0.0081108
1.2525000,1.2525000,1.2525000,-0.0040506,-0.0013613,-0.1568964,-0.0040506,-0.0064123,-0.0079998
1.2550000,1.2550000,1.2550000,-0.0040010,-0.0013533,-0.1559416,-0.0040010,-0.0063523,-0.0078904
1.2575000,1.2575000,1.2575000,-0.0039522,-0.0013453,-0.1549946,-0.0039522,-0.0062931,-0.0077827
1.2600000,1.2600000,1.2600000,-0.0039041,-0.0013374,-0.1540553,-0.0039041,-0.0062345,-0.0076766
1.2625000,1.2625000,1.2625000,-0.0038566,-0.0013295,-0.1531236,-0.0038566,-0.0061767,-0.0075720
1.2650000,1.2650000,1.2650000,-0.0038099,-0.0013218,-0.1521994,-0.0038099,-0.0061196,-0.0074690
1.2675000,1.2675000,1.2675000,-0.0037638,-0.0013140,-0.1512827,-0.0037638,-0.0060632,-0.0073675
1.2700000,1.2700000,1.2700000,-0.0037183,-0.0013064,-0.1503734,-0.0037183,-0.0060075,-0.0072675
1.2725000,1.2725000,1.2725000,-0.0036735,-0.0012988,-0.1494714,-0.0036735,-0.0059524,-0.0071689
1.2750000,1.2750000,1.2750000,-0.0036293,-0.0012912,-0.1485766,-0.0036293,-0.0058980,-0.0070719
1.2775000,1.2775000,1.2775000,-0.0035858,-0.0012837,-0.1476890,-0.0035858,-0.0058443,-0.0069762
1.2800000,1.2800000,1.2800000,-0.0035428,-0.0012763,-0.1468084,-0.0035428,-0.0057912,-0.0068819
1.2825000,1.2825000,1.2825000,-0.0035005,-0.0012689,-0.1459349,-0.0035005,-0.0057387,-0.0067891
1.2850000,1.2850000,1.2850000,-0.0034587,-0.0012616,-0.1450684,-0.0034587,-0.0056869,-0.0066975
1.2875000,1.2875000,1.2875000,-0.0034175,-0.0012543,-0.1442087,-0.0034175,-0.0056357,-0.0066073
1.2900000,1.2900000,1.2900000,-0.0033769,-0.0012471,-0.1433558,-0.0033769,-0.0055851,-0.0065185
1.2925000,1.2925000,1.2925000,-0.0033369,-0.0012400,-0.1425097,-0.0033369,-0.0055351,-0.0064309
1.2950000,1.2950000,1.2950000,-0.0032974,-0.0012329,-0.1416702,-0.0032974,-0.0054857,-0.0063445
1.2975000,1.2975000,1.2975000,-0.0032585,-0.0012258,-0.1408374,-0.0032585,-0.0054369,-0.0062595
1.3000000,1.3000000,1.3000000,-0.0032201,-0.0012188,-0.1400111,-0.0032201,-0.0053886,-0.0061756
1.3025000,1.3025000,1.3025000,-0.0031822,-0.0012119,-0.1391913,-0.0031822,-0.0053409,-0.0060930
1.3050000,1.3050000,1.3050000,-0.0031449,-0.0012050,-0.1383779,-0.0031449,-0.0052938,-0.0060115
1.3075000,1.3075000,1.3075000,-0.0031080,-0.0011982,-0.1375709,-0.0031080,-0.0052472,-0.0059312
1.3100000,1.3100000,1.3100000,-0.0030717,-0.0011914,-0.1367701,-0.0030717,-0.0052012,-0.0058521
1.3125000,1.3125000,1.3125000,-0.0030359,-0.0011846,-0.1359756,-0.0030359,-0.0051557,-0.0057741
1.3150000,1.3150000,1.3150000,-0.0030005,-0.0011780,-0.1351873,-0.0030005,-0.0051107,-0.0056972
1.3175000,1.3175000,1.3175000,-0.0029656,-0.0011713,-0.1344051,-0.0029656,-0.0050663,-0.0056214
1.3200000,1.3200000,1.3200000,-0.0029312,-0.0011647,-0.1336289,-0.0029312,-0.0050223,-0.0055467
1.3225000,1.3225000,1.3225000,-0.0028973,-0.0011582,-0.1328587,-0.0028973,-0.0049789,-0.0054731
1.3250000,1.3250000,1.3250000,-0.0028638,-0.0011517,-0.1320944,-0.0028638,-0.0049359,-0.0054005
1.3275000,1.3275000,1.3275000,-0.0028308,-0.0011453,-0.1313361,-0.0028308,-0.0048935,-0.0053289
1.3300000,1.3300000,1.3300000,-0.0027983,-0.0011389,-0.1305835,-0.0027983,-0.0048515,-0.0052584
1.3325000,1.3325000,1.3325000,-0.0027661,-0.0011325,-0.1298367,-0.0027661,-0.0048100,-0.0051888
1.3350000,1.3350000,1.3350000,-0.0027344,-0.0011262,-0.1290956,-0.0027344,-0.0047690,-0.0051202
1.3375000,1.3375000,1.3375000,-0.0027031,-0.0011200,-0.1283602,-0.0027031,-0.0047285,-0.0050526
1.3400000,1.3400000,1.3400000,-0.0026723,-0.0011138,-0.1276304,-0.0026723,-0.0046884,-0.0049860
1.3425000,1.3425000,1.3425000,-0.0026418,-0.0011076,-0.1269061,-0.0026418,-0.0046487,-0.0049202
1.3450000,1.3450000,1.3450000,-0.0026118,-0.0011015,-0.1261873,-0.0026118,-0.0046095,-0.0048554
1.3475000,1.3475000,1.3475000,-0.0025821,-0.0010954,-0.1254740,-0.0025821,-0.0045708,-0.0047915
1.3500000,1.3500000,1.3500000,-0.0025529,-0.0010894,-0.1247660,-0.0025529,-0.0045324,-0.0047285
1.3525000,1.3525000,1.3525000,-0.0025240,-0.0010834,-0.1240634,-0.0025240,-0.0044945,-0.0046664
1.3550000,1.3550000,1.3550000,-0.0024955,-0.0010775,-0.1233660,-0.0024955,-0.0044571,-0.0046051
1.3575000,1.3575000,1.3575000,-0.0024674,-0.0010716,-0.1226740,-0.0024674,-0.0044200,-0.0045447
1.3600000,1.3600000,1.3600000,-0.0024397,-0.0010657,-0.1219871,-0.0024397,-0.0043833,-0.0044852
1.3625000,1.3625000,1.3625000,-0.0024123,-0.0010599,-0.1213053,-0.0024123,-0.0043471,-0.0044264
1.3650000,1.3650000,1.3650000,-0.0023853,-0.0010541,-0.1206286,-0.0023853,-0.0043112,-0.0043685
1.3675000,1.3675000,1.3675000,-0.0023586,-0.0010484,-0.1199570,-0.0023586,-0.0042758,-0.0043113
1.3700000,1.3700000,1.3700000,-0.0023323,-0.0010427,-0.1192904,-0.0023323,-0.0042407,-0.0042550
1.3725000,1.3725000,1.3725000,-0.0023064,-0.0010371,-0.1186287,-0.0023064,-0.0042060,-0.0041994
1.3750000,1.3750000,1.3750000,-0.0022807,-0.0010315,-0.1179719,-0.0022807,-0.0041717,-0.0041446
1.3775000,1.3775000,1.3775000,-0.0022554,-0.0010259,-0.1173200,-0.0022554,-0.0041378,-0.0040906
1.3800000,1.3800000,1.3800000,-0.0022304,-0.0010204,-0.1166729,-0.0022304,-0.0041042,-0.0040373
1.3825000,1.3825000,1.3825000,-0.0022058,-0.0010149,-0.1160306,-0.0022058,-0.0040710,-0.0039847
1.3850000,1.3850000,1.3850000,-0.0021815,-0.0010094,-0.1153930,-0.0021815,-0.0040382,-0.0039328
1.3875000,1.3875000,1.3875000,-0.0021574,-0.0010040,-0.1147601,-0.0021574,-0.0040057,-0.0038817
1.3900000,1.3900000,1.3900000,-0.0021337,-0.0009987,-0.1141318,-0.0021337,-0.0039735,-0.0038312
1.3925000,1.3925000,1.3925000,-0.0021103,-0.0009933,-0.1135081,-0.0021103,-0.0039417,-0.0037815
1.3950000,1.3950000,1.3950000,-0.0020872,-0.0009880,-0.1128890,-0.0020872,-0.0039102,-0.0037324
1.3975000,1.3975000,1.3975000,-0.0020644,-0.0009828,-0.1122744,-0.0020644,-0.0038791,-0.0036840
1.4000000,1.4000000,1.4000000,-0.0020419,-0.0009775,-0.1116643,-0.0020419,-0.0038483,-0.0036362
1.4025000,1.4025000,1.4025000,-0.0020197,-0.0009724,-0.1110585,-0.0020197,-0.0038179,-0.0035891
1.4050000,1.4050000,1.4050000,-0.0019977,-0.0009672,-0.1104572,-0.0019977,-0.0037877,-0.0035426
1.4075000,1.4075000,1.4075000,-0.0019761,-0.0009621,-0.1098603,-0.0019761,-0.0037579,-0.0034967
1.4100000,1.4100000,1.4100000,-0.0019547,-0.0009570,-0.1092676,-0.0019547,-0.0037284,-0.0034515
1.4125000,1.4125000,1.4125000,-0.0019335,-0.0009520,-0.1086792,-0.0019335,-0.0036992,-0.0034068
1.4150000,1.4150000,1.4150000,-0.0019127,-0.0009470,-0.1080951,-0.0019127,-0.0036703,-0.0033628
1.4175000,1.4175000,1.4175000,-0.0018921,-0.0009420,-0.1075151,-0.0018921,-0.0036417,-0.0033194
1.4200000,1.4200000,1.4200000,-0.0018717,-0.0009371,-0.1069393,-0.0018717,-0.0036133,-0.0032765
1.4225000,1.4225000,1.4225000,-0.0018517,-0.0009322,-0.1063676,-0.0018517,-0.0035853,-0.0032342
1.4250000,1.4250000,1.4250000,-0.0018318,-0.0009273,-0.1058000,-0.0018318,-0.0035576,-0.0031925
1.4275000,1.4275000,1.4275000,-0.0018123,-0.0009225,-0.1052365,-0.0018123,-0.0035302,-0.0031513
1.4300000,1.4300000,1.4300000,-0.0017929,-0.0009177,-0.1046769,-0.0017929,-0.0035030,-0.0031107
1.4325000,1.4325000,1.4325000,-0.0017738,-0.0009129,-0.1041214,-0.0017738,-0.0034762,-0.0030706
1.4350000,1.4350000,1.4350000,-0.0017550,-0.0009082,-0.1035698,-0.0017550,-0.0034496,-0.0030311
1.4375000,1.4375000,1.4375000,-0.0017363,-0.0009035,-0.1030220,-0.0017363,-0.0034233,-0.0029921
1.4400000,1.4400000,1.4400000,-0.0017179,-0.0008988,-0.1024782,-0.0017179,-0.0033972,-0.0029536
1.4425000,1.4425000,1.4425000,-0.0016998,-0.0008941,-0.1019382,-0.0016998,-0.0033714,-0.0029156
1.4450000,1.4450000,1.4450000,-0.0016818,-0.0008895,-0.1014020,-0.0016818,-0.0033459,-0.0028781
1.4475000,1.4475000,1.4475000,-0.0016641,-0.0008850,-0.1008695,-0.0016641,-0.0033206,-0.0028411
1.4500000,1.4500000,1.4500000,-0.0016466,-0.0008804,-0.1003408,-0.0016466,-0.0032956,-0.0028046
1.4525000,1.4525000,1.4525000,-0.0016293,-0.0008759,-0.0998158,-0.0016293,-0.0032709,-0.0027686
1.4550000,1.4550000,1.4550000,-0.0016123,-0.0008714,-0.0992945,-0.0016123,-0.0032464,-0.0027330
1.4575000,1.4575000,1.4575000,-0.0015954,-0.0008670,-0.0987768,-0.0015954,-0.0032221,-0.0026979
1.4600000,1.4600000,1.4600000,-0.0015787,-0.0008626,-0.0982627,-0.0015787,-0.0031981,-0.0026633
1.4625000,1.4625000,1.4625000,-0.0015623,-0.0008582,-0.0977522,-0.0015623,-0.0031743,-0.0026291
1.4650000,1.4650000,1.4650000,-0.0015460,-0.0008538,-0.0972452,-0.0015460,-0.0031508,-0.0025954
1.4675000,1.4675000,1.4675000,-0.0015300,-0.0008495,-0.0967417,-0.0015300,-0.0031275,-0.0025621
1.4700000,1.4700000,1.4700000,-0.0015141,-0.0008452,-0.0962418,-0.0015141,-0.0031044,-0.0025292
1.4725000,1.4725000,1.4725000,-0.0014984,-0.0008409,-0.0957452,-0.0014984,-0.0030815,-0.0024968
1.4750000,1.4750000,1.4750000,-0.0014829,-0.0008366,-0.0952521,-0.0014829,-0.0030589,-0.0024648
1.4775000,1.4775000,1.4775000,-0.0014676,-0.0008324,-0.0947624,-0.0014676,-0.0030365,-0.0024332
1.4800000,1.4800000,1.4800000,-0.0014525,-0.0008282,-0.0942761,-0.0014525,-0.0030143,-0.0024020
1.4825000,1.4825000,1.4825000,-0.0014376,-0.0008241,-0.0937931,-0.0014376,-0.0029924,-0.0023713
1.4850000,1.4850000,1.4850000,-0.0014229,-0.0008199,-0.0933134,-0.0014229,-0.0029706,-0.0023409
1.4875000,1.4875000,1.4875000,-0.0014083,-0.0008158,-0.0928369,-0.0014083,-0.0029491,-0.0023109
1.4900000,1.4900000,1.4900000,-0.0013939,-0.0008117,-0.0923637,-0.0013939,-0.0029278,-0.0022813
1.4925000,1.4925000,1.4925000,-0.0013797,-0.0008077,-0.0918938,-0.0013797,-0.0029067,-0.0022521
1.4950000,1.4950000,1.4950000,-0.0013656,-0.0008037,-0.0914270,-0.0013656,-0.0028858,-0.0022233
1.4975000,1.4975000,1.4975000,-0.0013517,-0.0007997,-0.0909634,-0.0013517,-0.0028650,-0.0021948
1.5000000,1.5000000,1.5000000,-0.0013380,-0.0007957,-0.0905030,-0.0013380,-0.0028445,-0.0021667
1.5025000,1.5025000,1.5025000,-0.0013244,-0.0007918,-0.0900456,-0.0013244,-0.0028242,-0.0021389
1.5050000,1.5050000,1.5050000,-0.0013110,-0.0007878,-0.0895914,-0.0013110,-0.0028041,-0.0021115
1.5075000,1.5075000,1.5075000,-0.0012978,-0.0007839,-0.0891402,-0.0012978,-0.0027842,-0.0020845
1.5100000,1.5100000,1.5100000,-0.0012847,-0.0007801,-0.0886920,-0.0012847,-0.0027645,-0.0020578
1.5125000,1.5125000,1.5125000,-0.0012718,-0.0007762,-0.0882468,-0.0012718,-0.0027449,-0.0020315
1.5150000,1.5150000,1.5150000,-0.0012590,-0.0007724,-0.0878047,-0.0012590,-0.0027256,-0.0020055
1.5175000,1.5175000,1.5175000,-0.0012463,-0.0007686,-0.0873655,-0.0012463,-0.0027064,-0.0019798
1.5200000,1.5200000,1.5200000,-0.0012339,-0.0007648,-0.0869292,-0.0012339,-0.0026874,-0.0019544
1.5225000,1.5225000,1.5225000,-0.0012215,-0.0007611,-0.0864958,-0.0012215,-0.0026686,-0.0019294
1.5250000,1.5250000,1.5250000,-0.0012093,-0.0007574,-0.0860654,-0.0012093,-0.0026499,-0.0019047
1.5275000,1.5275000,1.5275000,-0.0011973,-0.0007537,-0.0856377,-0.0011973,-0.0026315,-0.0018802
1.5300000,1.5300000,1.5300000,-0.0011854,-0.0007500,-0.0852130,-0.0011854,-0.0026132,-0.0018562
1.5325000,1.5325000,1.5325000,-0.0011736,-0.0007464,-0.0847910,-0.0011736,-0.0025951,-0.0018324
1.5350000,1.5350000,1.5350000,-0.0011620,-0.0007427,-0.0843718,-0.0011620,-0.0025771,-0.0018089
1.5375000,1.5375000,1.5375000,-0.0011505,-0.0007391,-0.0839554,-0.0011505,-0.0025593,-0.0017857
1.5400000,1.5400000,1.5400000,-0.0011391,-0.0007356,-0.0835418,-0.0011391,-0.0025417,-0.0017628
1.5425000,1.5425000,1.5425000,-0.0011278,-0.0007320,-0.0831308,-0.0011278,-0.0025243,-0.0017402
1.5450000,1.5450000,1.5450000,-0.0011167,-0.0007285,-0.0827226,-0.0011167,-0.0025070,-0.0017178
1.5475000,1.5475000,1.5475000,-0.0011058,-0.0007250,-0.0823170,-0.0011058,-0.0024899,-0.0016958
1.5500000,1.5500000,1.5500000,-0.0010949,-0.0007215,-0.0819141,-0.0010949,-0.0024729,-0.0016740
1.5525000,1.5525000,1.5525000,-0.0010842,-0.0007180,-0.0815138,-0.0010842,-0.0024561,-0.0016525
1.5550000,1.5550000,1.5550000,-0.0010736,-0.0007146,-0.0811162,-0.0010736,-0.0024394,-0.0016313
1.5575000,1.5575000,1.5575000,-0.0010631,-0.0007111,-0.0807211,-0.0010631,-0.0024229,-0.0016103
1.5600000,1.5600000,1.5600000,-0.0010527,-0.0007077,-0.0803286,-0.0010527,-0.0024066,-0.0015896
1.5625000,1.5625000,1.5625000,-0.0010425,-0.0007044,-0.0799386,-0.0010425,-0.0023903,-0.0015692
1.5650000,1.5650000,1.5650000,-0.0010323,-0.0007010,-0.0795512,-0.0010323,-0.0023743,-0.0015490
1.5675000,1.5675000,1.5675000,-0.0010223,-0.0006977,-0.0791663,-0.0010223,-0.0023584,-0.0015290
1.5700000,1.5700000,1.5700000,-0.0010124,-0.0006944,-0.0787839,-0.0010124,-0.0023426,-0.0015093
1.5725000,1.5725000,1.5725000,-0.0010026,-0.0006911,-0.0784039,-0.0010026,-0.0023270,-0.0014899
1.5750000,1.5750000,1.5750000,-0.0009929,-0.0006878,-0.0780264,-0.0009929,-0.0023115,-0.0014707
1.5775000,1.5775000,1.5775000,-0.0009834,-0.0006845,-0.0776513,-0.0009834,-0.0022961,-0.0014517
1.5800000,1.5800000,1.5800000,-0.0009739,-0.0006813,-0.0772786,-0.0009739,-0.0022809,-0.0014330
1.5825000,1.5825000,1.5825000,-0.0009646,-0.0006781,-0.0769083,-0.0009646,-0.0022659,-0.0014145
1.5850000,1.5850000,1.5850000,-0.0009553,-0.0006749,-0.0765404,-0.0009553,-0.0022509,-0.0013962
1.5875000,1.5875000,1.5875000,-0.0009462,-0.0006717,-0.0761749,-0.0009462,-0.0022361,-0.0013781
1.5900000,1.5900000,1.5900000,-0.0009371,-0.0006686,-0.0758116,-0.0009371,-0.0022214,-0.0013603
1.5925000,1.5925000,1.5925000,-0.0009282,-0.0006654,-0.0754507,-0.0009282,-0.0022069,-0.0013427
1.5950000,1.5950000,1.5950000,-0.0009193,-0.0006623,-0.0750921,-0.0009193,-0.0021925,-0.0013253
1.5975000,1.5975000,1.5975000,-0.0009106,-0.0006592,-0.0747357,-0.0009106,-0.0021782,-0.0013081
