# r[nm],d[nm],daligned[nm],U(d)[kj/mol],V(d)[e/nm],Uslab(d)[kJ/mol],UC(d)[kJ/mol],UK(d)[kJ/mol],UCl(d)[kJ/mol]
0.1750000,0.1750000,0.1750000,1769.9454624,0.1253102,394.3141960,1769.9454624,1117.7143208,inf
0.1775000,0.1775000,0.1775000,1558.8102212,0.1191728,342.1888270,1558.8102212,983.3847500,inf
0.1800000,0.1800000,0.1800000,1374.0232514,0.1133224,297.1373119,1374.0232514,865.8838995,inf
0.1825000,0.1825000,0.1825000,1212.1371626,0.1077461,258.1380171,1212.1371626,763.0060265,inf
0.1850000,0.1850000,0.1850000,1070.1767765,0.1024316,224.3267600,1070.1767765,672.8477729,inf
0.1875000,0.1875000,0.1875000,945.5716667,0.0973672,194.9706717,945.5716667,593.7649500,inf
0.1900000,0.1900000,0.1900000,836.0987025,0.0925413,169.4466921,836.0987025,524.3357333,inf
0.1925000,0.1925000,0.1925000,739.8330649,0.0879433,147.2239191,739.8330649,463.3292851,inf
0.1950000,0.1950000,0.1950000,655.1064441,0.0835627,127.8491513,655.1064441,409.6789776,inf
0.1975000,0.1975000,0.1975000,580.4713283,0.0793896,110.9350273,580.4713283,362.4595190,inf
0.2000000,0.2000000,0.2000000,514.6704658,0.0754144,96.1502143,514.6704658,320.8673917,inf
0.2025000,0.2025000,0.2025000,456.6107241,0.0716281,83.2111763,456.6107241,284.2041032,inf
0.2050000,0.2050000,0.2050000,405.3406893,0.0680219,71.8751534,405.3406893,251.8618250,1725.1996206
0.2075000,0.2075000,0.2075000,360.0314508,0.0645876,61.9341028,360.0314508,223.3110588,1537.1422919
0.2100000,0.2100000,0.2100000,319.9600997,0.0613170,53.2094501,319.9600997,198.0900269,1370.5070032
0.2125000,0.2125000,0.2125000,284.4955407,0.0582026,45.5475701,284.4955407,175.7955351,1222.7301371
0.2150000,0.2150000,0.2150000,253.0862761,0.0552367,38.8159364,253.0862761,156.0751041,1091.5704541
0.2175000,0.2175000,0.2175000,225.2498702,0.0524116,32.8998819,225.2498702,138.6202045,975.0666011
0.2200000,0.2200000,0.2200000,200.5638487,0.0497191,27.6998974,200.5638487,123.1604607,871.5004702
0.2225000,0.2225000,0.2225000,178.6578280,0.0471500,23.1293923,178.6578280,109.4587026,779.3655684
0.2250000,0.2250000,0.2250000,159.2067074,0.0446934,19.1128350,159.2067074,97.3067538,697.3396867
0.2275000,0.2275000,0.2275000,141.9247897,0.0423366,15.5842057,141.9247897,86.5218432,624.2612585
0.2300000,0.2300000,0.2300000,126.5607182,0.0400649,12.4856982,126.5607182,76.9435289,559.1088893
0.2325000,0.2325000,0.2325000,112.8931351,0.0378623,9.7666250,112.8931351,68.4310318,500.9836146
0.2350000,0.2350000,0.2350000,100.7269670,0.0357120,7.3824849,100.7269670,60.8608885,449.0935061
0.2375000,0.2375000,0.2375000,89.8902493,0.0335984,5.2941659,89.8902493,54.1248569,402.7403041
0.2400000,0.2400000,0.2400000,80.2313983,0.0315086,3.4672593,80.2313983,48.1280318,361.3077947
0.2425000,0.2425000,0.2425000,71.6168430,0.0294337,1.8714656,71.6168430,42.7871480,324.2516963
0.2450000,0.2450000,0.2450000,63.9289423,0.0273699,0.4800787,63.9289423,38.0290628,291.0908479
0.2475000,0.2475000,0.2475000,57.0641254,0.0253186,-0.7304662,57.0641254,33.7894132,261.3995217
0.2500000,0.2500000,0.2500000,50.9312161,0.0232856,-1.7809935,50.9312161,30.0114453,234.8007069
0.2525000,0.2525000,0.2525000,45.4499167,0.0212803,-2.6899442,45.4499167,26.6450046,210.9602322
0.2550000,0.2550000,0.2550000,40.5494422,0.0193138,-3.4736970,40.5494422,23.6456723,189.5816158
0.2575000,0.2575000,0.2575000,36.1673024,0.0173975,-4.1468531,36.1673024,20.9740313,170.4015521
0.2600000,0.2600000,0.2600000,32.2482284,0.0155423,-4.7224837,32.2482284,18.5950422,153.1859576
0.2625000,0.2625000,0.2625000,28.7432374,0.0137569,-5.2123380,28.7432374,16.4775107,137.7265174
0.2650000,0.2650000,0.2650000,25.6088279,0.0120483,-5.6270097,25.6088279,14.5936291,123.8376785
0.2675000,0.2675000,0.2675000,22.8062901,0.0104212,-5.9760667,22.8062901,12.9185790,111.3540413
0.2700000,0.2700000,0.2700000,20.3011164,0.0088781,-6.2681495,20.3011164,11.4301783,100.1281030
0.2725000,0.2725000,0.2725000,18.0624983,0.0074198,-6.5110471,18.0624983,10.1085640,90.0283012
0.2750000,0.2750000,0.2750000,16.0628931,0.0060457,-6.7117553,16.0628931,8.9359001,80.9373102
0.2775000,0.2775000,0.2775000,14.2776480,0.0047543,-6.8765209,14.2776480,7.8961065,72.7505412
0.2800000,0.2800000,0.2800000,12.6846685,0.0035434,-7.0108717,12.6846685,6.9746114,65.3748040
0.2825000,0.2825000,0.2825000,11.2641215,0.0024109,-7.1196318,11.2641215,6.1581344,58.7270975
0.2850000,0.2850000,0.2850000,9.9981636,0.0013547,-7.2069283,9.9981636,5.4345125,52.7335058
0.2875000,0.2875000,0.2875000,8.8706889,0.0003734,-7.2761970,8.8706889,4.7925810,47.3281878
0.2900000,0.2900000,0.2900000,7.8670979,-0.0005346,-7.3302012,7.8670979,4.2221134,42.4524537
0.2925000,0.2925000,0.2925000,6.9740897,-0.0013708,-7.3710726,6.9740897,3.7138171,38.0539298
0.2950000,0.2950000,0.2950000,6.1794876,-0.0021377,-7.4003820,6.1794876,3.2593672,34.0858097
0.2975000,0.2975000,0.2975000,5.4721077,-0.0028398,-7.4192360,5.4721077,2.8514553,30.5061918
0.3000000,0.3000000,0.3000000,4.8416753,-0.0034836,-7.4283930,4.8416753,2.4838229,27.2774985
0.3025000,0.3025000,0.3025000,4.2787916,-0.0040777,-7.4283844,4.2787916,2.1512587,24.3659714
0.3050000,0.3050000,0.3050000,3.7749399,-0.0046329,-7.4196271,3.7749399,1.8495448,21.7412343
0.3075000,0.3075000,0.3075000,3.3225153,-0.0051602,-7.4025168,3.3225153,1.5753526,19.3759150
0.3100000,0.3100000,0.3100000,2.9148583,-0.0056706,-7.3774908,2.9148583,1.3261022,17.2453168
0.3125000,0.3125000,0.3125000,2.5462683,-0.0061730,-7.3450613,2.5462683,1.0998022,15.3271317
0.3150000,0.3150000,0.3150000,2.2119837,-0.0066736,-7.3058179,2.2119837,0.8948905,13.6011863
0.3175000,0.3175000,0.3175000,1.9081198,-0.0071754,-7.2604121,1.9081198,0.7100914,12.0492138
0.3200000,0.3200000,0.3200000,1.6315695,-0.0076782,-7.2095303,1.6315695,0.5442985,10.6546459
0.3225000,0.3225000,0.3225000,1.3798766,-0.0081792,-7.1538683,1.3798766,0.3964856,9.4024204
0.3250000,0.3250000,0.3250000,1.1510978,-0.0086736,-7.0941122,1.1510978,0.2656443,8.2788039
0.3275000,0.3275000,0.3275000,0.9436673,-0.0091554,-7.0309279,0.9436673,0.1507437,7.2712299
0.3300000,0.3300000,0.3300000,0.7562770,-0.0096179,-6.9649601,0.7562770,0.0507074,6.3681564
0.3325000,0.3325000,0.3325000,0.5877764,-0.0100548,-6.8968344,0.5877764,-0.0355961,5.5589482
0.3350000,0.3350000,0.3350000,0.4370968,-0.0104598,-6.8271644,0.4370968,-0.1093529,4.8337878
0.3375000,0.3375000,0.3375000,0.3031969,-0.0108280,-6.7565571,0.3031969,-0.1717954,4.1836174
0.3400000,0.3400000,0.3400000,0.1850268,-0.0111563,-6.6856184,0.1850268,-0.2241853,3.6001104
0.3425000,0.3425000,0.3425000,0.0815076,-0.0114436,-6.6149537,0.0815076,-0.2677917,3.0756681
0.3450000,0.3450000,0.3450000,-0.0084779,-0.0116920,-6.5451633,-0.0084779,-0.3038655,2.6034307
0.3475000,0.3475000,0.3475000,-0.0860838,-0.0119069,-6.4768303,-0.0860838,-0.3336123,2.1772918
0.3500000,0.3500000,0.3500000,-0.1524931,-0.0120964,-6.4105024,-0.1524931,-0.3581682,1.7919045
0.3525000,0.3525000,0.3525000,-0.2089032,-0.0122713,-6.3466663,-0.2089032,-0.3785806,1.4426692
0.3550000,0.3550000,0.3550000,-0.2565076,-0.0124432,-6.2857172,-0.2565076,-0.3957943,1.1256974
0.3575000,0.3575000,0.3575000,-0.2964753,-0.0126232,-6.2279242,-0.2964753,-0.4106435,0.8377515
0.3600000,0.3600000,0.3600000,-0.3299312,-0.0128210,-6.1733984,-0.3299312,-0.4238483,0.5761640
0.3625000,0.3625000,0.3625000,-0.3579390,-0.0130425,-6.1220748,-0.3579390,-0.4360148,0.3387451
0.3650000,0.3650000,0.3650000,-0.3814872,-0.0132904,-6.0737141,-0.3814872,-0.4476383,0.1236850
0.3675000,0.3675000,0.3675000,-0.4014795,-0.0135628,-6.0279286,-0.4014795,-0.4591095,-0.0705392
0.3700000,0.3700000,0.3700000,-0.4187279,-0.0138545,-5.9842269,-0.4187279,-0.4707230,-0.2452469
0.3725000,0.3725000,0.3725000,-0.4339488,-0.0141578,-5.9420655,-0.4339488,-0.4826880,-0.4016246
0.3750000,0.3750000,0.3750000,-0.4477603,-0.0144643,-5.9008999,-0.4477603,-0.4951390,-0.5407817
0.3775000,0.3775000,0.3775000,-0.4606816,-0.0147664,-5.8602254,-0.4606816,-0.5081461,-0.6637915
0.3800000,0.3800000,0.3800000,-0.4731337,-0.0150596,-5.8196066,-0.4731337,-0.5217231,-0.7717196
0.3825000,0.3825000,0.3825000,-0.4854432,-0.0153429,-5.7786957,-0.4854432,-0.5358347,-0.8656402
0.3850000,0.3850000,0.3850000,-0.4978477,-0.0156200,-5.7372418,-0.4978477,-0.5504019,-0.9466420
0.3875000,0.3875000,0.3875000,-0.5105032,-0.0158980,-5.6950923,-0.5105032,-0.5653085,-1.0158273
0.3900000,0.3900000,0.3900000,-0.5234929,-0.0161871,-5.6521885,-0.5234929,-0.5804067,-1.0743039
0.3925000,0.3925000,0.3925000,-0.5368358,-0.0164989,-5.6085536,-0.5368358,-0.5955251,-1.1231739
0.3950000,0.3950000,0.3950000,-0.5504962,-0.0168447,-5.5642766,-0.5504962,-0.6104779,-1.1635207
0.3975000,0.3975000,0.3975000,-0.5643923,-0.0172346,-5.5194919,-0.5643923,-0.6250752,-1.1963961
0.4000000,0.4000000,0.4000000,-0.5784057,-0.0176765,-5.4743584,-0.5784057,-0.6391349,-1.2228081
0.4025000,0.4025000,0.4025000,-0.5923905,-0.0181757,-5.4290389,-0.5923905,-0.6524951,-1.2437126
0.4050000,0.4050000,0.4050000,-0.6061840,-0.0187342,-5.3836850,-0.6061840,-0.6650245,-1.2600054
0.4075000,0.4075000,0.4075000,-0.6196183,-0.0193505,-5.3384292,-0.6196183,-0.6766327,-1.2725172
0.4100000,0.4100000,0.4100000,-0.6325329,-0.0200190,-5.2933811,-0.6325329,-0.6872758,-1.2820094
0.4125000,0.4125000,0.4125000,-0.6447871,-0.0207296,-5.2486239,-0.6447871,-0.6969588,-1.2891699
0.4150000,0.4150000,0.4150000,-0.6562712,-0.0214673,-5.2042064,-0.6562712,-0.7057328,-1.2946098
0.4175000,0.4175000,0.4175000,-0.6669154,-0.0222126,-5.1601335,-0.6669154,-0.7136857,-1.2988597
0.4200000,0.4200000,0.4200000,-0.6766954,-0.0229422,-5.1163588,-0.6766954,-0.7209288,-1.3023674
0.4225000,0.4225000,0.4225000,-0.6856333,-0.0236306,-5.0727840,-0.6856333,-0.7275796,-1.3054967
0.4250000,0.4250000,0.4250000,-0.6937941,-0.0242522,-5.0292665,-0.6937941,-0.7337467,-1.3085274
0.4275000,0.4275000,0.4275000,-0.7012761,-0.0247831,-4.9856348,-0.7012761,-0.7395177,-1.3116575
0.4300000,0.4300000,0.4300000,-0.7081982,-0.0252036,-4.9417081,-0.7081982,-0.7449543,-1.3150079
0.4325000,0.4325000,0.4325000,-0.7146833,-0.0254997,-4.8973157,-0.7146833,-0.7500941,-1.3186274
0.4350000,0.4350000,0.4350000,-0.7208434,-0.0256638,-4.8523105,-0.7208434,-0.7549564,-1.3225020
0.4375000,0.4375000,0.4375000,-0.7267678,-0.0256950,-4.8065747,-0.7267678,-0.7595518,-1.3265649
0.4400000,0.4400000,0.4400000,-0.7325173,-0.0255986,-4.7600199,-0.7325173,-0.7638904,-1.3307092
0.4425000,0.4425000,0.4425000,-0.7381256,-0.0253842,-4.7125845,-0.7381256,-0.7679867,-1.3348030
0.4450000,0.4450000,0.4450000,-0.7436053,-0.0250644,-4.6642300,-0.7436053,-0.7718603,-1.3387049
0.4475000,0.4475000,0.4475000,-0.7489580,-0.0246527,-4.6149397,-0.7489580,-0.7755335,-1.3422788
0.4500000,0.4500000,0.4500000,-0.7541829,-0.0241616,-4.5647177,-0.7541829,-0.7790259,-1.3454072
0.4525000,0.4525000,0.4525000,-0.7592838,-0.0236018,-4.5135887,-0.7592838,-0.7823501,-1.3480017
0.4550000,0.4550000,0.4550000,-0.7642703,-0.0229815,-4.4615976,-0.7642703,-0.7855079,-1.3500088
0.4575000,0.4575000,0.4575000,-0.7691564,-0.0223064,-4.4088079,-0.7691564,-0.7884876,-1.3514123
0.4600000,0.4600000,0.4600000,-0.7739555,-0.0215808,-4.3552993,-0.7739555,-0.7912626,-1.3522312
0.4625000,0.4625000,0.4625000,-0.7786762,-0.0208078,-4.3011643,-0.7786762,-0.7937907,-1.3525134
0.4650000,0.4650000,0.4650000,-0.7833177,-0.0199906,-4.2465050,-0.7833177,-0.7960155,-1.3523271
0.4675000,0.4675000,0.4675000,-0.7878667,-0.0191327,-4.1914294,-0.7878667,-0.7978692,-1.3517508
0.4700000,0.4700000,0.4700000,-0.7922945,-0.0182394,-4.1360478,-0.7922945,-0.7992777,-1.3508629
0.4725000,0.4725000,0.4725000,-0.7965554,-0.0173176,-4.0804702,-0.7965554,-0.8001668,-1.3497342
0.4750000,0.4750000,0.4750000,-0.8005869,-0.0163759,-4.0248035,-0.8005869,-0.8004698,-1.3484243
0.4775000,0.4775000,0.4775000,-0.8043116,-0.0154250,-3.9691502,-0.8043116,-0.8001334,-1.3469805
0.4800000,0.4800000,0.4800000,-0.8076420,-0.0144766,-3.9136062,-0.8076420,-0.7991226,-1.3454409
0.4825000,0.4825000,0.4825000,-0.8104876,-0.0135430,-3.8582606,-0.8104876,-0.7974217,-1.3438372
0.4850000,0.4850000,0.4850000,-0.8127622,-0.0126356,-3.8031950,-0.8127622,-0.7950324,-1.3421975
0.4875000,0.4875000,0.4875000,-0.8143929,-0.0117645,-3.7484832,-0.8143929,-0.7919683,-1.3405472
0.4900000,0.4900000,0.4900000,-0.8153250,-0.0109370,-3.6941911,-0.8153250,-0.7882484,-1.3389085
0.4925000,0.4925000,0.4925000,-0.8155250,-0.0101581,-3.6403772,-0.8155250,-0.7838914,-1.3372985
0.4950000,0.4950000,0.4950000,-0.8149788,-0.0094297,-3.5870929,-0.8149788,-0.7789125,-1.3357271
0.4975000,0.4975000,0.4975000,-0.8136869,-0.0087518,-3.5343826,-0.8136869,-0.7733237,-1.3341955
0.5000000,0.5000000,0.5000000,-0.8116585,-0.0081227,-3.4822846,-0.8116585,-0.7671367,-1.3326941
0.5025000,0.5025000,0.5025000,-0.8089054,-0.0075401,-3.4308313,-0.8089054,-0.7603667,-1.3312005
0.5050000,0.5050000,0.5050000,-0.8054397,-0.0070013,-3.3800498,-0.8054397,-0.7530358,-1.3296779
0.5075000,0.5075000,0.5075000,-0.8012728,-0.0065032,-3.3299625,-0.8012728,-0.7451735,-1.3280743
0.5100000,0.5100000,0.5100000,-0.7964181,-0.0060430,-3.2805873,-0.7964181,-0.7368154,-1.3263229
0.5125000,0.5125000,0.5125000,-0.7908938,-0.0056173,-3.2319383,-0.7908938,-0.7279996,-1.3243445
0.5150000,0.5150000,0.5150000,-0.7847247,-0.0052229,-3.1840260,-0.7847247,-0.7187637,-1.3220523
0.5175000,0.5175000,0.5175000,-0.7779425,-0.0048563,-3.1368581,-0.7779425,-0.7091428,-1.3193583
0.5200000,0.5200000,0.5200000,-0.7705836,-0.0045144,-3.0904392,-0.7705836,-0.6991679,-1.3161790
0.5225000,0.5225000,0.5225000,-0.7626865,-0.0041946,-3.0447716,-0.7626865,-0.6888668,-1.3124416
0.5250000,0.5250000,0.5250000,-0.7542888,-0.0038948,-2.9998557,-0.7542888,-0.6782649,-1.3080862
0.5275000,0.5275000,0.5275000,-0.7454252,-0.0036138,-2.9556897,-0.7454252,-0.6673871,-1.3030668
0.5300000,0.5300000,0.5300000,-0.7361273,-0.0033512,-2.9122705,-0.7361273,-0.6562587,-1.2973494
0.5325000,0.5325000,0.5325000,-0.7264234,-0.0031067,-2.8695933,-0.7264234,-0.6449062,-1.2909098
0.5350000,0.5350000,0.5350000,-0.7163400,-0.0028807,-2.8276523,-0.7163400,-0.6333584,-1.2837316
0.5375000,0.5375000,0.5375000,-0.7059035,-0.0026733,-2.7864406,-0.7059035,-0.6216455,-1.2758047
0.5400000,0.5400000,0.5400000,-0.6951408,-0.0024849,-2.7459504,-0.6951408,-0.6097991,-1.2671259
0.5425000,0.5425000,0.5425000,-0.6840805,-0.0023154,-2.7061732,-0.6840805,-0.5978517,-1.2576993
0.5450000,0.5450000,0.5450000,-0.6727534,-0.0021647,-2.6670997,-0.6727534,-0.5858362,-1.2475370
0.5475000,0.5475000,0.5475000,-0.6611920,-0.0020320,-2.6287204,-0.6611920,-0.5737846,-1.2366589
0.5500000,0.5500000,0.5500000,-0.6494306,-0.0019168,-2.5910250,-0.6494306,-0.5617281,-1.2250916
0.5525000,0.5525000,0.5525000,-0.6375048,-0.0018180,-2.5540030,-0.6375048,-0.5496962,-1.2128661
0.5550000,0.5550000,0.5550000,-0.6254502,-0.0017344,-2.5176439,-0.6254502,-0.5377166,-1.2000161
0.5575000,0.5575000,0.5575000,-0.6133024,-0.0016648,-2.4819365,-0.6133024,-0.5258146,-1.1865761
0.5600000,0.5600000,0.5600000,-0.6010959,-0.0016078,-2.4468698,-0.6010959,-0.5140135,-1.1725799
0.5625000,0.5625000,0.5625000,-0.5888640,-0.0015623,-2.4124325,-0.5888640,-0.5023338,-1.1580604
0.5650000,0.5650000,0.5650000,-0.5766380,-0.0015268,-2.3786135,-0.5766380,-0.4907939,-1.1430500
0.5675000,0.5675000,0.5675000,-0.5644470,-0.0015002,-2.3454014,-0.5644470,-0.4794097,-1.1275808
0.5700000,0.5700000,0.5700000,-0.5523179,-0.0014812,-2.3127849,-0.5523179,-0.4681950,-1.1116856
0.5725000,0.5725000,0.5725000,-0.5402750,-0.0014688,-2.2807528,-0.5402750,-0.4571615,-1.0953984
0.5750000,0.5750000,0.5750000,-0.5283402,-0.0014620,-2.2492939,-0.5283402,-0.4463189,-1.0787549
0.5775000,0.5775000,0.5775000,-0.5165329,-0.0014600,-2.2183972,-0.5165329,-0.4356750,-1.0617928
0.5800000,0.5800000,0.5800000,-0.5048702,-0.0014618,-2.1880516,-0.5048702,-0.4252364,-1.0445515
0.5825000,0.5825000,0.5825000,-0.4933667,-0.0014668,-2.1582463,-0.4933667,-0.4150077,-1.0270718
0.5850000,0.5850000,0.5850000,-0.4820351,-0.0014744,-2.1289706,-0.4820351,-0.4049926,-1.0093955
0.5875000,0.5875000,0.5875000,-0.4708862,-0.0014840,-2.1002138,-0.4708862,-0.3951934,-0.9915647
0.5900000,0.5900000,0.5900000,-0.4599287,-0.0014951,-2.0719655,-0.4599287,-0.3856115,-0.9736213
0.5925000,0.5925000,0.5925000,-0.4491699,-0.0015074,-2.0442155,-0.4491699,-0.3762473,-0.9556062
0.5950000,0.5950000,0.5950000,-0.4386154,-0.0015204,-2.0169537,-0.4386154,-0.3671006,-0.9375592
0.5975000,0.5975000,0.5975000,-0.4282697,-0.0015339,-1.9901701,-0.4282697,-0.3581703,-0.9195182
0.6000000,0.6000000,0.6000000,-0.4181359,-0.0015476,-1.9638549,-0.4181359,-0.3494547,-0.9015188
0.6025000,0.6025000,0.6025000,-0.4082160,-0.0015612,-1.9379986,-0.4082160,-0.3409518,-0.8835945
0.6050000,0.6050000,0.6050000,-0.3985113,-0.0015747,-1.9125918,-0.3985113,-0.3326590,-0.8657761
0.6075000,0.6075000,0.6075000,-0.3890220,-0.0015879,-1.8876252,-0.3890220,-0.3245734,-0.8480916
0.6100000,0.6100000,0.6100000,-0.3797478,-0.0016006,-1.8630899,-0.3797478,-0.3166918,-0.8305666
0.6125000,0.6125000,0.6125000,-0.3706876,-0.0016127,-1.8389768,-0.3706876,-0.3090108,-0.8132238
0.6150000,0.6150000,0.6150000,-0.3618398,-0.0016243,-1.8152775,-0.3618398,-0.3015266,-0.7960835
0.6175000,0.6175000,0.6175000,-0.3532025,-0.0016351,-1.7919833,-0.3532025,-0.2942355,-0.7791635
0.6200000,0.6200000,0.6200000,-0.3447730,-0.0016453,-1.7690860,-0.3447730,-0.2871335,-0.7624791
0.6225000,0.6225000,0.6225000,-0.3365487,-0.0016547,-1.7465774,-0.3365487,-0.2802166,-0.7460437
0.6250000,0.6250000,0.6250000,-0.3285265,-0.0016633,-1.7244495,-0.3285265,-0.2734807,-0.7298683
0.6275000,0.6275000,0.6275000,-0.3207031,-0.0016711,-1.7026946,-0.3207031,-0.2669215,-0.7139623
0.6300000,0.6300000,0.6300000,-0.3130749,-0.0016781,-1.6813050,-0.3130749,-0.2605350,-0.6983332
0.6325000,0.6325000,0.6325000,-0.3056383,-0.0016843,-1.6602733,-0.3056383,-0.2543170,-0.6829870
0.6350000,0.6350000,0.6350000,-0.2983896,-0.0016898,-1.6395921,-0.2983896,-0.2482633,-0.6679282
0.6375000,0.6375000,0.6375000,-0.2913249,-0.0016945,-1.6192544,-0.2913249,-0.2423698,-0.6531601
0.6400000,0.6400000,0.6400000,-0.2844402,-0.0016985,-1.5992531,-0.2844402,-0.2366324,-0.6386847
0.6425000,0.6425000,0.6425000,-0.2777316,-0.0017017,-1.5795815,-0.2777316,-0.2310470,-0.6245032
0.6450000,0.6450000,0.6450000,-0.2711951,-0.0017042,-1.5602328,-0.2711951,-0.2256097,-0.6106156
0.6475000,0.6475000,0.6475000,-0.2648266,-0.0017060,-1.5412007,-0.2648266,-0.2203165,-0.5970213
0.6500000,0.6500000,0.6500000,-0.2586222,-0.0017072,-1.5224786,-0.2586222,-0.2151636,-0.5837188
0.6525000,0.6525000,0.6525000,-0.2525779,-0.0017077,-1.5040605,-0.2525779,-0.2101471,-0.5707063
0.6550000,0.6550000,0.6550000,-0.2466897,-0.0017076,-1.4859401,-0.2466897,-0.2052634,-0.5579810
0.6575000,0.6575000,0.6575000,-0.2409537,-0.0017069,-1.4681116,-0.2409537,-0.2005087,-0.5455400
0.6600000,0.6600000,0.6600000,-0.2353661,-0.0017056,-1.4505692,-0.2353661,-0.1958796,-0.5333798
0.6625000,0.6625000,0.6625000,-0.2299230,-0.0017038,-1.4333072,-0.2299230,-0.1913725,-0.5214967
0.6650000,0.6650000,0.6650000,-0.2246207,-0.0017015,-1.4163200,-0.2246207,-0.1869841,-0.5098865
0.6675000,0.6675000,0.6675000,-0.2194555,-0.0016988,-1.3996022,-0.2194555,-0.1827110,-0.4985450
0.6700000,0.6700000,0.6700000,-0.2144238,-0.0016955,-1.3831486,-0.2144238,-0.1785500,-0.4874676
0.6725000,0.6725000,0.6725000,-0.2095220,-0.0016918,-1.3669538,-0.2095220,-0.1744979,-0.4766497
0.6750000,0.6750000,0.6750000,-0.2047467,-0.0016877,-1.3510130,-0.2047467,-0.1705517,-0.4660864
0.6775000,0.6775000,0.6775000,-0.2000945,-0.0016832,-1.3353212,-0.2000945,-0.1667083,-0.4557728
0.6800000,0.6800000,0.6800000,-0.1955620,-0.0016783,-1.3198734,-0.1955620,-0.1629649,-0.4457040
0.6825000,0.6825000,0.6825000,-0.1911460,-0.0016731,-1.3046650,-0.1911460,-0.1593187,-0.4358748
0.6850000,0.6850000,0.6850000,-0.1868433,-0.0016675,-1.2896914,-0.1868433,-0.1557668,-0.4262803
0.6875000,0.6875000,0.6875000,-0.1826508,-0.0016616,-1.2749481,-0.1826508,-0.1523067,-0.4169154
0.6900000,0.6900000,0.6900000,-0.1785655,-0.0016554,-1.2604306,-0.1785655,-0.1489356,-0.4077750
0.6925000,0.6925000,0.6925000,-0.1745845,-0.0016490,-1.2461346,-0.1745845,-0.1456511,-0.3988541
0.6950000,0.6950000,0.6950000,-0.1707048,-0.0016423,-1.2320560,-0.1707048,-0.1424508,-0.3901477
0.6975000,0.6975000,0.6975000,-0.1669238,-0.0016353,-1.2181906,-0.1669238,-0.1393322,-0.3816508
0.7000000,0.7000000,0.7000000,-0.1632387,-0.0016282,-1.2045343,-0.1632387,-0.1362931,-0.3733585
0.7025000,0.7025000,0.7025000,-0.1596468,-0.0016208,-1.1910833,-0.1596468,-0.1333311,-0.3652659
0.7050000,0.7050000,0.7050000,-0.1561455,-0.0016132,-1.1778337,-0.1561455,-0.1304441,-0.3573683
0.7075000,0.7075000,0.7075000,-0.1527325,-0.0016054,-1.1647817,-0.1527325,-0.1276300,-0.3496609
0.7100000,0.7100000,0.7100000,-0.1494051,-0.0015975,-1.1519236,-0.1494051,-0.1248868,-0.3421391
0.7125000,0.7125000,0.7125000,-0.1461612,-0.0015894,-1.1392558,-0.1461612,-0.1222124,-0.3347984
0.7150000,0.7150000,0.7150000,-0.1429983,-0.0015811,-1.1267749,-0.1429983,-0.1196049,-0.3276343
0.7175000,0.7175000,0.7175000,-0.1399142,-0.0015728,-1.1144773,-0.1399142,-0.1170625,-0.3206423
0.7200000,0.7200000,0.7200000,-0.1369068,-0.0015643,-1.1023597,-0.1369068,-0.1145833,-0.3138182
0.7225000,0.7225000,0.7225000,-0.1339740,-0.0015557,-1.0904188,-0.1339740,-0.1121655,-0.3071578
0.7250000,0.7250000,0.7250000,-0.1311137,-0.0015470,-1.0786514,-0.1311137,-0.1098075,-0.3006569
0.7275000,0.7275000,0.7275000,-0.1283238,-0.0015382,-1.0670543,-0.1283238,-0.1075075,-0.2943116
0.7300000,0.7300000,0.7300000,-0.1256026,-0.0015293,-1.0556244,-0.1256026,-0.1052640,-0.2881178
0.7325000,0.7325000,0.7325000,-0.1229481,-0.0015203,-1.0443588,-0.1229481,-0.1030754,-0.2820717
0.7350000,0.7350000,0.7350000,-0.1203584,-0.0015113,-1.0332544,-0.1203584,-0.1009402,-0.2761695
0.7375000,0.7375000,0.7375000,-0.1178319,-0.0015022,-1.0223084,-0.1178319,-0.0988569,-0.2704077
0.7400000,0.7400000,0.7400000,-0.1153667,-0.0014931,-1.0115179,-0.1153667,-0.0968242,-0.2647825
0.7425000,0.7425000,0.7425000,-0.1129613,-0.0014839,-1.0008802,-0.1129613,-0.0948405,-0.2592905
0.7450000,0.7450000,0.7450000,-0.1106140,-0.0014747,-0.9903925,-0.1106140,-0.0929045,-0.2539283
0.7475000,0.7475000,0.7475000,-0.1083232,-0.0014655,-0.9800523,-0.1083232,-0.0910150,-0.2486925
0.7500000,0.7500000,0.7500000,-0.1060875,-0.0014562,-0.9698568,-0.1060875,-0.0891708,-0.2435799
0.7525000,0.7525000,0.7525000,-0.1039052,-0.0014469,-0.9598036,-0.1039052,-0.0873704,-0.2385874
0.7550000,0.7550000,0.7550000,-0.1017750,-0.0014376,-0.9498902,-0.1017750,-0.0856129,-0.2337119
0.7575000,0.7575000,0.7575000,-0.0996955,-0.0014282,-0.9401141,-0.0996955,-0.0838970,-0.2289503
0.7600000,0.7600000,0.7600000,-0.0976654,-0.0014189,-0.9304730,-0.0976654,-0.0822216,-0.2242997
0.7625000,0.7625000,0.7625000,-0.0956832,-0.0014096,-0.9209645,-0.0956832,-0.0805855,-0.2197574
0.7650000,0.7650000,0.7650000,-0.0937478,-0.0014002,-0.9115864,-0.0937478,-0.0789879,-0.2153204
0.7675000,0.7675000,0.7675000,-0.0918578,-0.0013909,-0.9023363,-0.0918578,-0.0774276,-0.2109862
0.7700000,0.7700000,0.7700000,-0.0900121,-0.0013816,-0.8932121,-0.0900121,-0.0759036,-0.2067521
0.7725000,0.7725000,0.7725000,-0.0882096,-0.0013723,-0.8842117,-0.0882096,-0.0744150,-0.2026155
0.7750000,0.7750000,0.7750000,-0.0864490,-0.0013630,-0.8753329,-0.0864490,-0.0729609,-0.1985740
0.7775000,0.7775000,0.7775000,-0.0847293,-0.0013537,-0.8665736,-0.0847293,-0.0715402,-0.1946251
0.7800000,0.7800000,0.7800000,-0.0830493,-0.0013445,-0.8579320,-0.0830493,-0.0701523,-0.1907664
0.7825000,0.7825000,0.7825000,-0.0814081,-0.0013352,-0.8494059,-0.0814081,-0.0687961,-0.1869958
0.7850000,0.7850000,0.7850000,-0.0798047,-0.0013261,-0.8409934,-0.0798047,-0.0674709,-0.1833109
0.7875000,0.7875000,0.7875000,-0.0782380,-0.0013169,-0.8326927,-0.0782380,-0.0661758,-0.1797095
0.7900000,0.7900000,0.7900000,-0.0767071,-0.0013078,-0.8245018,-0.0767071,-0.0649101,-0.1761896
0.7925000,0.7925000,0.7925000,-0.0752111,-0.0012987,-0.8164190,-0.0752111,-0.0636730,-0.1727492
0.7950000,0.7950000,0.7950000,-0.0737490,-0.0012896,-0.8084425,-0.0737490,-0.0624638,-0.1693861
0.7975000,0.7975000,0.7975000,-0.0723201,-0.0012806,-0.8005705,-0.0723201,-0.0612818,-0.1660984
0.8000000,0.8000000,0.8000000,-0.0709234,-0.0012716,-0.7928012,-0.0709234,-0.0601262,-0.1628844
0.8025000,0.8025000,0.8025000,-0.0695581,-0.0012626,-0.7851331,-0.0695581,-0.0589963,-0.1597420
0.8050000,0.8050000,0.8050000,-0.0682234,-0.0012537,-0.7775644,-0.0682234,-0.0578916,-0.1566695
0.8075000,0.8075000,0.8075000,-0.0669186,-0.0012449,-0.7700935,-0.0669186,-0.0568114,-0.1536653
0.8100000,0.8100000,0.8100000,-0.0656428,-0.0012361,-0.7627189,-0.0656428,-0.0557550,-0.1507275
0.8125000,0.8125000,0.8125000,-0.0643954,-0.0012273,-0.7554389,-0.0643954,-0.0547219,-0.1478545
0.8150000,0.8150000,0.8150000,-0.0631757,-0.0012186,-0.7482522,-0.0631757,-0.0537115,-0.1450447
0.8175000,0.8175000,0.8175000,-0.0619828,-0.0012099,-0.7411571,-0.0619828,-0.0527231,-0.1422966
0.8200000,0.8200000,0.8200000,-0.0608162,-0.0012013,-0.7341521,-0.0608162,-0.0517563,-0.1396086
0.8225000,0.8225000,0.8225000,-0.0596753,-0.0011928,-0.7272360,-0.0596753,-0.0508105,-0.1369793
0.8250000,0.8250000,0.8250000,-0.0585592,-0.0011842,-0.7204072,-0.0585592,-0.0498852,-0.1344072
0.8275000,0.8275000,0.8275000,-0.0574675,-0.0011758,-0.7136643,-0.0574675,-0.0489799,-0.1318909
0.8300000,0.8300000,0.8300000,-0.0563996,-0.0011674,-0.7070061,-0.0563996,-0.0480940,-0.1294290
0.8325000,0.8325000,0.8325000,-0.0553548,-0.0011590,-0.7004311,-0.0553548,-0.0472271,-0.1270202
0.8350000,0.8350000,0.8350000,-0.0543326,-0.0011507,-0.6939381,-0.0543326,-0.0463788,-0.1246633
0.8375000,0.8375000,0.8375000,-0.0533323,-0.0011425,-0.6875258,-0.0533323,-0.0455485,-0.1223569
0.8400000,0.8400000,0.8400000,-0.0523536,-0.0011343,-0.6811929,-0.0523536,-0.0447359,-0.1200998
0.8425000,0.8425000,0.8425000,-0.0513958,-0.0011261,-0.6749381,-0.0513958,-0.0439405,-0.1178909
0.8450000,0.8450000,0.8450000,-0.0504585,-0.0011181,-0.6687604,-0.0504585,-0.0431619,-0.1157290
0.8475000,0.8475000,0.8475000,-0.0495411,-0.0011100,-0.6626584,-0.0495411,-0.0423996,-0.1136129
0.8500000,0.8500000,0.8500000,-0.0486432,-0.0011021,-0.6566311,-0.0486432,-0.0416533,-0.1115416
0.8525000,0.8525000,0.8525000,-0.0477642,-0.0010942,-0.6506772,-0.0477642,-0.0409227,-0.1095140
0.8550000,0.8550000,0.8550000,-0.0469038,-0.0010863,-0.6447957,-0.0469038,-0.0402072,-0.1075290
0.8575000,0.8575000,0.8575000,-0.0460615,-0.0010785,-0.6389854,-0.0460615,-0.0395066,-0.1055856
0.8600000,0.8600000,0.8600000,-0.0452368,-0.0010708,-0.6332453,-0.0452368,-0.0388205,-0.1036829
0.8625000,0.8625000,0.8625000,-0.0444294,-0.0010631,-0.6275743,-0.0444294,-0.0381486,-0.1018198
0.8650000,0.8650000,0.8650000,-0.0436388,-0.0010555,-0.6219713,-0.0436388,-0.0374905,-0.0999955
0.8675000,0.8675000,0.8675000,-0.0428646,-0.0010479,-0.6164354,-0.0428646,-0.0368459,-0.0982090
0.8700000,0.8700000,0.8700000,-0.0421064,-0.0010404,-0.6109654,-0.0421064,-0.0362145,-0.0964595
0.8725000,0.8725000,0.8725000,-0.0413639,-0.0010329,-0.6055606,-0.0413639,-0.0355959,-0.0947460
0.8750000,0.8750000,0.8750000,-0.0406367,-0.0010255,-0.6002197,-0.0406367,-0.0349899,-0.0930677
0.8775000,0.8775000,0.8775000,-0.0399244,-0.0010182,-0.5949420,-0.0399244,-0.0343962,-0.0914239
0.8800000,0.8800000,0.8800000,-0.0392267,-0.0010109,-0.5897265,-0.0392267,-0.0338145,-0.0898136
0.8825000,0.8825000,0.8825000,-0.0385432,-0.0010037,-0.5845722,-0.0385432,-0.0332444,-0.0882362
0.8850000,0.8850000,0.8850000,-0.0378736,-0.0009965,-0.5794783,-0.0378736,-0.0326859,-0.0866909
0.8875000,0.8875000,0.8875000,-0.0372176,-0.0009894,-0.5744438,-0.0372176,-0.0321384,-0.0851769
0.8900000,0.8900000,0.8900000,-0.0365749,-0.0009823,-0.5694679,-0.0365749,-0.0316019,-0.0836935
0.8925000,0.8925000,0.8925000,-0.0359451,-0.0009753,-0.5645498,-0.0359451,-0.0310761,-0.0822400
0.8950000,0.8950000,0.8950000,-0.0353280,-0.0009684,-0.5596885,-0.0353280,-0.0305607,-0.0808157
0.8975000,0.8975000,0.8975000,-0.0347232,-0.0009615,-0.5548833,-0.0347232,-0.0300555,-0.0794200
0.9000000,0.9000000,0.9000000,-0.0341306,-0.0009546,-0.5501334,-0.0341306,-0.0295602,-0.0780521
0.9025000,0.9025000,0.9025000,-0.0335497,-0.0009479,-0.5454380,-0.0335497,-0.0290746,-0.0767116
0.9050000,0.9050000,0.9050000,-0.0329804,-0.0009411,-0.5407962,-0.0329804,-0.0285986,-0.0753977
0.9075000,0.9075000,0.9075000,-0.0324224,-0.0009344,-0.5362073,-0.0324224,-0.0281318,-0.0741099
0.9100000,0.9100000,0.9100000,-0.0318754,-0.0009278,-0.5316706,-0.0318754,-0.0276741,-0.0728475
0.9125000,0.9125000,0.9125000,-0.0313392,-0.0009213,-0.5271852,-0.0313392,-0.0272253,-0.0716100
0.9150000,0.9150000,0.9150000,-0.0308135,-0.0009147,-0.5227506,-0.0308135,-0.0267852,-0.0703968
0.9175000,0.9175000,0.9175000,-0.0302981,-0.0009083,-0.5183659,-0.0302981,-0.0263536,-0.0692075
0.9200000,0.9200000,0.9200000,-0.0297928,-0.0009019,-0.5140305,-0.0297928,-0.0259303,-0.0680414
0.9225000,0.9225000,0.9225000,-0.0292973,-0.0008955,-0.5097436,-0.0292973,-0.0255150,-0.0668980
0.9250000,0.9250000,0.9250000,-0.0288114,-0.0008892,-0.5055046,-0.0288114,-0.0251078,-0.0657769
0.9275000,0.9275000,0.9275000,-0.0283350,-0.0008830,-0.5013128,-0.0283350,-0.0247082,-0.0646775
0.9300000,0.9300000,0.9300000,-0.0278677,-0.0008768,-0.4971675,-0.0278677,-0.0243163,-0.0635994
0.9325000,0.9325000,0.9325000,-0.0274095,-0.0008706,-0.4930681,-0.0274095,-0.0239318,-0.0625421
0.9350000,0.9350000,0.9350000,-0.0269600,-0.0008645,-0.4890140,-0.0269600,-0.0235545,-0.0615052
0.9375000,0.9375000,0.9375000,-0.0265192,-0.0008585,-0.4850045,-0.0265192,-0.0231844,-0.0604881
0.9400000,0.9400000,0.9400000,-0.0260868,-0.0008525,-0.4810390,-0.0260868,-0.0228212,-0.0594905
0.9425000,0.9425000,0.9425000,-0.0256626,-0.0008465,-0.4771170,-0.0256626,-0.0224648,-0.0585120
0.9450000,0.9450000,0.9450000,-0.0252464,-0.0008406,-0.4732377,-0.0252464,-0.0221151,-0.0575521
0.9475000,0.9475000,0.9475000,-0.0248382,-0.0008348,-0.4694007,-0.0248382,-0.0217718,-0.0566104
0.9500000,0.9500000,0.9500000,-0.0244376,-0.0008290,-0.4656053,-0.0244376,-0.0214349,-0.0556865
0.9525000,0.9525000,0.9525000,-0.0240446,-0.0008233,-0.4618510,-0.0240446,-0.0211043,-0.0547801
0.9550000,0.9550000,0.9550000,-0.0236590,-0.0008175,-0.4581372,-0.0236590,-0.0207798,-0.0538907
0.9575000,0.9575000,0.9575000,-0.0232806,-0.0008119,-0.4544634,-0.0232806,-0.0204612,-0.0530181
0.9600000,0.9600000,0.9600000,-0.0229093,-0.0008063,-0.4508290,-0.0229093,-0.0201485,-0.0521618
0.9625000,0.9625000,0.9625000,-0.0225449,-0.0008007,-0.4472336,-0.0225449,-0.0198415,-0.0513215
0.9650000,0.9650000,0.9650000,-0.0221873,-0.0007952,-0.4436765,-0.0221873,-0.0195401,-0.0504968
0.9675000,0.9675000,0.9675000,-0.0218362,-0.0007897,-0.4401573,-0.0218362,-0.0192441,-0.0496875
0.9700000,0.9700000,0.9700000,-0.0214917,-0.0007843,-0.4366754,-0.0214917,-0.0189536,-0.0488932
0.9725000,0.9725000,0.9725000,-0.0211535,-0.0007789,-0.4332304,-0.0211535,-0.0186683,-0.0481136
0.9750000,0.9750000,0.9750000,-0.0208216,-0.0007736,-0.4298218,-0.0208216,-0.0183881,-0.0473484
0.9775000,0.9775000,0.9775000,-0.0204957,-0.0007683,-0.4264490,-0.0204957,-0.0181130,-0.0465972
0.9800000,0.9800000,0.9800000,-0.0201758,-0.0007631,-0.4231117,-0.0201758,-0.0178428,-0.0458598
0.9825000,0.9825000,0.9825000,-0.0198617,-0.0007579,-0.4198094,-0.0198617,-0.0175774,-0.0451360
0.9850000,0.9850000,0.9850000,-0.0195533,-0.0007527,-0.4165415,-0.0195533,-0.0173167,-0.0444253
0.9875000,0.9875000,0.9875000,-0.0192505,-0.0007476,-0.4133077,-0.0192505,-0.0170607,-0.0437276
0.9900000,0.9900000,0.9900000,-0.0189532,-0.0007425,-0.4101074,-0.0189532,-0.0168093,-0.0430425
0.9925000,0.9925000,0.9925000,-0.0186613,-0.0007375,-0.4069404,-0.0186613,-0.0165622,-0.0423699
0.9950000,0.9950000,0.9950000,-0.0183746,-0.0007325,-0.4038060,-0.0183746,-0.0163196,-0.0417094
0.9975000,0.9975000,0.9975000,-0.0180930,-0.0007276,-0.4007040,-0.0180930,-0.0160812,-0.0410608
1.0000000,1.0000000,1.0000000,-0.0178165,-0.0007227,-0.3976338,-0.0178165,-0.0158469,-0.0404238
1.0025000,1.0025000,1.0025000,-0.0175449,-0.0007178,-0.3945951,-0.0175449,-0.0156168,-0.0397983
1.0050000,1.0050000,1.0050000,-0.0172782,-0.0007130,-0.3915875,-0.0172782,-0.0153907,-0.0391840
1.0075000,1.0075000,1.0075000,-0.0170162,-0.0007082,-0.3886105,-0.0170162,-0.0151685,-0.0385806
1.0100000,1.0100000,1.0100000,-0.0167588,-0.0007035,-0.3856639,-0.0167588,-0.0149501,-0.0379880
1.0125000,1.0125000,1.0125000,-0.0165060,-0.0006988,-0.3827471,-0.0165060,-0.0147356,-0.0374059
1.0150000,1.0150000,1.0150000,-0.0162576,-0.0006941,-0.3798598,-0.0162576,-0.0145247,-0.0368341
1.0175000,1.0175000,1.0175000,-0.0160136,-0.0006895,-0.3770017,-0.0160136,-0.0143175,-0.0362724
1.0200000,1.0200000,1.0200000,-0.0157739,-0.0006849,-0.3741724,-0.0157739,-0.0141138,-0.0357206
1.0225000,1.0225000,1.0225000,-0.0155383,-0.0006804,-0.3713714,-0.0155383,-0.0139136,-0.0351785
1.0250000,1.0250000,1.0250000,-0.0153069,-0.0006759,-0.3685985,-0.0153069,-0.0137168,-0.0346459
1.0275000,1.0275000,1.0275000,-0.0150795,-0.0006714,-0.3658533,-0.0150795,-0.0135233,-0.0341226
1.0300000,1.0300000,1.0300000,-0.0148561,-0.0006670,-0.3631354,-0.0148561,-0.0133331,-0.0336084
1.0325000,1.0325000,1.0325000,-0.0146365,-0.0006626,-0.3604446,-0.0146365,-0.0131462,-0.0331032
1.0350000,1.0350000,1.0350000,-0.0144207,-0.0006582,-0.3577804,-0.0144207,-0.0129624,-0.0326067
1.0375000,1.0375000,1.0375000,-0.0142086,-0.0006539,-0.3551426,-0.0142086,-0.0127817,-0.0321189
1.0400000,1.0400000,1.0400000,-0.0140002,-0.0006496,-0.3525308,-0.0140002,-0.0126040,-0.0316395
1.0425000,1.0425000,1.0425000,-0.0137953,-0.0006453,-0.3499446,-0.0137953,-0.0124293,-0.0311683
1.0450000,1.0450000,1.0450000,-0.0135939,-0.0006411,-0.3473839,-0.0135939,-0.0122575,-0.0307053
1.0475000,1.0475000,1.0475000,-0.0133960,-0.0006369,-0.3448482,-0.0133960,-0.0120886,-0.0302501
1.0500000,1.0500000,1.0500000,-0.0132014,-0.0006328,-0.3423372,-0.0132014,-0.0119224,-0.0298028
1.0525000,1.0525000,1.0525000,-0.0130101,-0.0006287,-0.3398507,-0.0130101,-0.0117591,-0.0293631
1.0550000,1.0550000,1.0550000,-0.0128221,-0.0006246,-0.3373884,-0.0128221,-0.0115984,-0.0289309
1.0575000,1.0575000,1.0575000,-0.0126373,-0.0006205,-0.3349499,-0.0126373,-0.0114403,-0.0285060
1.0600000,1.0600000,1.0600000,-0.0124555,-0.0006165,-0.3325350,-0.0124555,-0.0112849,-0.0280884
1.0625000,1.0625000,1.0625000,-0.0122768,-0.0006125,-0.3301434,-0.0122768,-0.0111320,-0.0276778
1.0650000,1.0650000,1.0650000,-0.0121011,-0.0006086,-0.3277748,-0.0121011,-0.0109816,-0.0272741
1.0675000,1.0675000,1.0675000,-0.0119283,-0.0006047,-0.3254289,-0.0119283,-0.0108337,-0.0268772
1.0700000,1.0700000,1.0700000,-0.0117585,-0.0006008,-0.3231054,-0.0117585,-0.0106881,-0.0264870
1.0725000,1.0725000,1.0725000,-0.0115914,-0.0005969,-0.3208042,-0.0115914,-0.0105449,-0.0261033
1.0750000,1.0750000,1.0750000,-0.0114271,-0.0005931,-0.3185248,-0.0114271,-0.0104041,-0.0257260
1.0775000,1.0775000,1.0775000,-0.0112656,-0.0005893,-0.3162671,-0.0112656,-0.0102655,-0.0253550
1.0800000,1.0800000,1.0800000,-0.0111067,-0.0005856,-0.3140308,-0.0111067,-0.0101291,-0.0249902
1.0825000,1.0825000,1.0825000,-0.0109504,-0.0005818,-0.3118157,-0.0109504,-0.0099949,-0.0246314
1.0850000,1.0850000,1.0850000,-0.0107967,-0.0005781,-0.3096214,-0.0107967,-0.0098629,-0.0242786
1.0875000,1.0875000,1.0875000,-0.0106455,-0.0005745,-0.3074478,-0.0106455,-0.0097329,-0.0239316
1.0900000,1.0900000,1.0900000,-0.0104967,-0.0005708,-0.3052946,-0.0104967,-0.0096051,-0.0235903
1.0925000,1.0925000,1.0925000,-0.0103504,-0.0005672,-0.3031615,-0.0103504,-0.0094792,-0.0232546
1.0950000,1.0950000,1.0950000,-0.0102065,-0.0005637,-0.3010484,-0.0102065,-0.0093554,-0.0229244
1.0975000,1.0975000,1.0975000,-0.0100649,-0.0005601,-0.2989550,-0.0100649,-0.0092335,-0.0225996
1.1000000,1.1000000,1.1000000,-0.0099257,-0.0005566,-0.2968810,-0.0099257,-0.0091135,-0.0222802
1.1025000,1.1025000,1.1025000,-0.0097886,-0.0005531,-0.2948263,-0.0097886,-0.0089955,-0.0219659
1.1050000,1.1050000,1.1050000,-0.0096538,-0.0005496,-0.2927906,-0.0096538,-0.0088792,-0.0216567
1.1075000,1.1075000,1.1075000,-0.0095211,-0.0005462,-0.2907736,-0.0095211,-0.0087648,-0.0213526
1.1100000,1.1100000,1.1100000,-0.0093906,-0.0005428,-0.2887753,-0.0093906,-0.0086522,-0.0210533
1.1125000,1.1125000,1.1125000,-0.0092622,-0.0005394,-0.2867953,-0.0092622,-0.0085413,-0.0207589
1.1150000,1.1150000,1.1150000,-0.0091358,-0.0005360,-0.2848334,-0.0091358,-0.0084321,-0.0204693
1.1175000,1.1175000,1.1175000,-0.0090114,-0.0005327,-0.2828895,-0.0090114,-0.0083247,-0.0201843
1.1200000,1.1200000,1.1200000,-0.0088890,-0.0005294,-0.2809634,-0.0088890,-0.0082189,-0.0199038
1.1225000,1.1225000,1.1225000,-0.0087685,-0.0005261,-0.2790547,-0.0087685,-0.0081147,-0.0196279
1.1250000,1.1250000,1.1250000,-0.0086500,-0.0005229,-0.2771634,-0.0086500,-0.0080121,-0.0193563
1.1275000,1.1275000,1.1275000,-0.0085333,-0.0005196,-0.2752892,-0.0085333,-0.0079111,-0.0190891
1.1300000,1.1300000,1.1300000,-0.0084185,-0.0005164,-0.2734320,-0.0084185,-0.0078116,-0.0188261
1.1325000,1.1325000,1.1325000,-0.0083054,-0.0005133,-0.2715915,-0.0083054,-0.0077137,-0.0185673
1.1350000,1.1350000,1.1350000,-0.0081942,-0.0005101,-0.2697676,-0.0081942,-0.0076172,-0.0183126
1.1375000,1.1375000,1.1375000,-0.0080846,-0.0005070,-0.2679600,-0.0080846,-0.0075222,-0.0180619
1.1400000,1.1400000,1.1400000,-0.0079768,-0.0005039,-0.2661686,-0.0079768,-0.0074286,-0.0178151
1.1425000,1.1425000,1.1425000,-0.0078707,-0.0005008,-0.2643933,-0.0078707,-0.0073365,-0.0175723
1.1450000,1.1450000,1.1450000,-0.0077662,-0.0004978,-0.2626337,-0.0077662,-0.0072457,-0.0173332
1.1475000,1.1475000,1.1475000,-0.0076633,-0.0004948,-0.2608898,-0.0076633,-0.0071563,-0.0170979
1.1500000,1.1500000,1.1500000,-0.0075621,-0.0004917,-0.2591614,-0.0075621,-0.0070683,-0.0168662
1.1525000,1.1525000,1.1525000,-0.0074623,-0.0004888,-0.2574483,-0.0074623,-0.0069815,-0.0166382
1.1550000,1.1550000,1.1550000,-0.0073642,-0.0004858,-0.2557503,-0.0073642,-0.0068961,-0.0164137
1.1575000,1.1575000,1.1575000,-0.0072675,-0.0004829,-0.2540673,-0.0072675,-0.0068119,-0.0161927
1.1600000,1.1600000,1.1600000,-0.0071723,-0.0004800,-0.2523991,-0.0071723,-0.0067290,-0.0159751
1.1625000,1.1625000,1.1625000,-0.0070786,-0.0004771,-0.2507456,-0.0070786,-0.0066473,-0.0157608
1.1650000,1.1650000,1.1650000,-0.0069863,-0.0004742,-0.2491065,-0.0069863,-0.0065668,-0.0155499
1.1675000,1.1675000,1.1675000,-0.0068954,-0.0004714,-0.2474817,-0.0068954,-0.0064874,-0.0153422
1.1700000,1.1700000,1.1700000,-0.0068058,-0.0004686,-0.2458711,-0.0068058,-0.0064093,-0.0151377
1.1725000,1.1725000,1.1725000,-0.0067177,-0.0004658,-0.2442745,-0.0067177,-0.0063323,-0.0149363
1.1750000,1.1750000,1.1750000,-0.0066308,-0.0004630,-0.2426917,-0.0066308,-0.0062564,-0.0147380
1.1775000,1.1775000,1.1775000,-0.0065453,-0.0004602,-0.2411227,-0.0065453,-0.0061816,-0.0145427
1.1800000,1.1800000,1.1800000,-0.0064611,-0.0004575,-0.2395672,-0.0064611,-0.0061080,-0.0143504
1.1825000,1.1825000,1.1825000,-0.0063781,-0.0004548,-0.2380251,-0.0063781,-0.0060353,-0.0141611
1.1850000,1.1850000,1.1850000,-0.0062964,-0.0004521,-0.2364963,-0.0062964,-0.0059638,-0.0139745
1.1875000,1.1875000,1.1875000,-0.0062159,-0.0004494,-0.2349806,-0.0062159,-0.0058932,-0.0137908
1.1900000,1.1900000,1.1900000,-0.0061366,-0.0004468,-0.2334779,-0.0061366,-0.0058237,-0.0136099
1.1925000,1.1925000,1.1925000,-0.0060585,-0.0004441,-0.2319880,-0.0060585,-0.0057552,-0.0134317
1.1950000,1.1950000,1.1950000,-0.0059815,-0.0004415,-0.2305108,-0.0059815,-0.0056877,-0.0132562
1.1975000,1.1975000,1.1975000,-0.0059057,-0.0004389,-0.2290462,-0.0059057,-0.0056211,-0.0130833
1.2000000,1.2000000,1.2000000,-0.0058310,-0.0004364,-0.2275941,-0.0058310,-0.0055555,-0.0129130
1.2025000,1.2025000,1.2025000,-0.0057574,-0.0004338,-0.2261542,-0.0057574,-0.0054908,-0.0127452
1.2050000,1.2050000,1.2050000,-0.0056849,-0.0004313,-0.2247265,-0.0056849,-0.0054271,-0.0125800
1.2075000,1.2075000,1.2075000,-0.0056135,-0.0004288,-0.2233108,-0.0056135,-0.0053642,-0.0124172
1.2100000,1.2100000,1.2100000,-0.0055431,-0.0004263,-0.2219071,-0.0055431,-0.0053022,-0.0122568
1.2125000,1.2125000,1.2125000,-0.0054737,-0.0004238,-0.2205151,-0.0054737,-0.0052411,-0.0120988
1.2150000,1.2150000,1.2150000,-0.0054054,-0.0004213,-0.2191348,-0.0054054,-0.0051809,-0.0119431
1.2175000,1.2175000,1.2175000,-0.0053380,-0.0004189,-0.2177661,-0.0053380,-0.0051215,-0.0117897
1.2200000,1.2200000,1.2200000,-0.0052717,-0.0004165,-0.2164088,-0.0052717,-0.0050629,-0.0116386
1.2225000,1.2225000,1.2225000,-0.0052062,-0.0004141,-0.2150627,-0.0052062,-0.0050052,-0.0114897
1.2250000,1.2250000,1.2250000,-0.0051418,-0.0004117,-0.2137279,-0.0051418,-0.0049483,-0.0113429
1.2275000,1.2275000,1.2275000,-0.0050783,-0.0004093,-0.2124041,-0.0050783,-0.0048921,-0.0111984
1.2300000,1.2300000,1.2300000,-0.0050156,-0.0004070,-0.2110913,-0.0050156,-0.0048367,-0.0110559
1.2325000,1.2325000,1.2325000,-0.0049539,-0.0004046,-0.2097893,-0.0049539,-0.0047821,-0.0109155
1.2350000,1.2350000,1.2350000,-0.0048931,-0.0004023,-0.2084981,-0.0048931,-0.0047283,-0.0107772
1.2375000,1.2375000,1.2375000,-0.0048331,-0.0004000,-0.2072174,-0.0048331,-0.0046752,-0.0106408
1.2400000,1.2400000,1.2400000,-0.0047740,-0.0003978,-0.2059473,-0.0047740,-0.0046228,-0.0105064
1.2425000,1.2425000,1.2425000,-0.0047158,-0.0003955,-0.2046876,-0.0047158,-0.0045712,-0.0103740
1.2450000,1.2450000,1.2450000,-0.0046584,-0.0003932,-0.2034382,-0.0046584,-0.0045202,-0.0102435
1.2475000,1.2475000,1.2475000,-0.0046018,-0.0003910,-0.2021989,-0.0046018,-0.0044700,-0.0101149
1.2500000,1.2500000,1.2500000,-0.0045459,-0.0003888,-0.2009697,-0.0045459,-0.0044204,-0.0099881
1.2525000,1.2525000,1.2525000,-0.0044909,-0.0003866,-0.1997506,-0.0044909,-0.0043715,-0.0098631
1.2550000,1.2550000,1.2550000,-0.0044367,-0.0003844,-0.1985413,-0.0044367,-0.0043233,-0.0097399
1.2575000,1.2575000,1.2575000,-0.0043832,-0.0003823,-0.1973417,-0.0043832,-0.0042757,-0.0096185
1.2600000,1.2600000,1.2600000,-0.0043305,-0.0003801,-0.1961519,-0.0043305,-0.0042287,-0.0094988
1.2625000,1.2625000,1.2625000,-0.0042785,-0.0003780,-0.1949716,-0.0042785,-0.0041824,-0.0093808
1.2650000,1.2650000,1.2650000,-0.0042273,-0.0003759,-0.1938009,-0.0042273,-0.0041368,-0.0092645
1.2675000,1.2675000,1.2675000,-0.0041767,-0.0003738,-0.1926395,-0.0041767,-0.0040917,-0.0091499
1.2700000,1.2700000,1.2700000,-0.0041269,-0.0003717,-0.1914874,-0.0041269,-0.0040472,-0.0090368
1.2725000,1.2725000,1.2725000,-0.0040778,-0.0003696,-0.1903445,-0.0040778,-0.0040033,-0.0089254
1.2750000,1.2750000,1.2750000,-0.0040293,-0.0003676,-0.1892107,-0.0040293,-0.0039600,-0.0088155
1.2775000,1.2775000,1.2775000,-0.0039815,-0.0003655,-0.1880860,-0.0039815,-0.0039173,-0.0087072
1.2800000,1.2800000,1.2800000,-0.0039344,-0.0003635,-0.1869701,-0.0039344,-0.0038752,-0.0086004
1.2825000,1.2825000,1.2825000,-0.0038879,-0.0003615,-0.1858632,-0.0038879,-0.0038336,-0.0084950
1.2850000,1.2850000,1.2850000,-0.0038421,-0.0003595,-0.1847649,-0.0038421,-0.0037925,-0.0083912
1.2875000,1.2875000,1.2875000,-0.0037969,-0.0003575,-0.1836754,-0.0037969,-0.0037520,-0.0082888
1.2900000,1.2900000,1.2900000,-0.0037523,-0.0003555,-0.1825944,-0.0037523,-0.0037121,-0.0081878
1.2925000,1.2925000,1.2925000,-0.0037084,-0.0003536,-0.1815219,-0.0037084,-0.0036726,-0.0080883
1.2950000,1.2950000,1.2950000,-0.0036650,-0.0003516,-0.1804578,-0.0036650,-0.0036337,-0.0079901
1.2975000,1.2975000,1.2975000,-0.0036222,-0.0003497,-0.1794021,-0.0036222,-0.0035953,-0.0078933
1.3000000,1.3000000,1.3000000,-0.0035800,-0.0003478,-0.1783546,-0.0035800,-0.0035573,-0.0077978
1.3025000,1.3025000,1.3025000,-0.0035384,-0.0003459,-0.1773152,-0.0035384,-0.0035199,-0.0077036
1.3050000,1.3050000,1.3050000,-0.0034973,-0.0003440,-0.1762840,-0.0034973,-0.0034830,-0.0076108
1.3075000,1.3075000,1.3075000,-0.0034568,-0.0003421,-0.1752608,-0.0034568,-0.0034465,-0.0075192
1.3100000,1.3100000,1.3100000,-0.0034169,-0.0003403,-0.1742455,-0.0034169,-0.0034105,-0.0074288
1.3125000,1.3125000,1.3125000,-0.0033775,-0.0003384,-0.1732380,-0.0033775,-0.0033750,-0.0073397
1.3150000,1.3150000,1.3150000,-0.0033386,-0.0003366,-0.1722384,-0.0033386,-0.0033399,-0.0072519
1.3175000,1.3175000,1.3175000,-0.0033002,-0.0003348,-0.1712464,-0.0033002,-0.0033052,-0.0071652
1.3200000,1.3200000,1.3200000,-0.0032624,-0.0003330,-0.1702621,-0.0032624,-0.0032711,-0.0070797
1.3225000,1.3225000,1.3225000,-0.0032251,-0.0003312,-0.1692853,-0.0032251,-0.0032373,-0.0069953
1.3250000,1.3250000,1.3250000,-0.0031882,-0.0003294,-0.1683160,-0.0031882,-0.0032040,-0.0069122
1.3275000,1.3275000,1.3275000,-0.0031519,-0.0003276,-0.1673541,-0.0031519,-0.0031711,-0.0068301
1.3300000,1.3300000,1.3300000,-0.0031160,-0.0003259,-0.1663996,-0.0031160,-0.0031386,-0.0067491
1.3325000,1.3325000,1.3325000,-0.0030806,-0.0003241,-0.1654523,-0.0030806,-0.0031065,-0.0066693
1.3350000,1.3350000,1.3350000,-0.0030457,-0.0003224,-0.1645122,-0.0030457,-0.0030749,-0.0065905
1.3375000,1.3375000,1.3375000,-0.0030112,-0.0003207,-0.1635793,-0.0030112,-0.0030436,-0.0065128
1.3400000,1.3400000,1.3400000,-0.0029772,-0.0003190,-0.1626534,-0.0029772,-0.0030127,-0.0064361
1.3425000,1.3425000,1.3425000,-0.0029437,-0.0003173,-0.1617345,-0.0029437,-0.0029823,-0.0063604
1.3450000,1.3450000,1.3450000,-0.0029106,-0.0003156,-0.1608226,-0.0029106,-0.0029522,-0.0062858
1.3475000,1.3475000,1.3475000,-0.0028779,-0.0003139,-0.1599175,-0.0028779,-0.0029224,-0.0062121
1.3500000,1.3500000,1.3500000,-0.0028456,-0.0003123,-0.1590192,-0.0028456,-0.0028931,-0.0061395
1.3525000,1.3525000,1.3525000,-0.0028138,-0.0003106,-0.1581277,-0.0028138,-0.0028641,-0.0060678
1.3550000,1.3550000,1.3550000,-0.0027824,-0.0003090,-0.1572428,-0.0027824,-0.0028354,-0.0059970
1.3575000,1.3575000,1.3575000,-0.0027514,-0.0003074,-0.1563645,-0.0027514,-0.0028072,-0.0059272
1.3600000,1.3600000,1.3600000,-0.0027208,-0.0003057,-0.1554928,-0.0027208,-0.0027792,-0.0058583
1.3625000,1.3625000,1.3625000,-0.0026906,-0.0003041,-0.1546276,-0.0026906,-0.0027516,-0.0057903
1.3650000,1.3650000,1.3650000,-0.0026608,-0.0003025,-0.1537688,-0.0026608,-0.0027244,-0.0057232
1.3675000,1.3675000,1.3675000,-0.0026313,-0.0003010,-0.1529164,-0.0026313,-0.0026975,-0.0056570
1.3700000,1.3700000,1.3700000,-0.0026023,-0.0002994,-0.1520703,-0.0026023,-0.0026709,-0.0055917
1.3725000,1.3725000,1.3725000,-0.0025736,-0.0002978,-0.1512304,-0.0025736,-0.0026446,-0.0055272
1.3750000,1.3750000,1.3750000,-0.0025453,-0.0002963,-0.1503967,-0.0025453,-0.0026187,-0.0054636
1.3775000,1.3775000,1.3775000,-0.0025174,-0.0002947,-0.1495692,-0.0025174,-0.0025931,-0.0054008
1.3800000,1.3800000,1.3800000,-0.0024898,-0.0002932,-0.1487477,-0.0024898,-0.0025678,-0.0053388
1.3825000,1.3825000,1.3825000,-0.0024626,-0.0002917,-0.1479323,-0.0024626,-0.0025428,-0.0052777
1.3850000,1.3850000,1.3850000,-0.0024357,-0.0002902,-0.1471228,-0.0024357,-0.0025181,-0.0052173
1.3875000,1.3875000,1.3875000,-0.0024091,-0.0002887,-0.1463193,-0.0024091,-0.0024937,-0.0051577
1.3900000,1.3900000,1.3900000,-0.0023829,-0.0002872,-0.1455216,-0.0023829,-0.0024696,-0.0050989
1.3925000,1.3925000,1.3925000,-0.0023571,-0.0002857,-0.1447297,-0.0023571,-0.0024457,-0.0050408
1.3950000,1.3950000,1.3950000,-0.0023315,-0.0002843,-0.1439436,-0.0023315,-0.0024222,-0.0049835
1.3975000,1.3975000,1.3975000,-0.0023063,-0.0002828,-0.1431631,-0.0023063,-0.0023989,-0.0049269
1.4000000,1.4000000,1.4000000,-0.0022814,-0.0002814,-0.1423883,-0.0022814,-0.0023760,-0.0048711
1.4025000,1.4025000,1.4025000,-0.0022568,-0.0002799,-0.1416192,-0.0022568,-0.0023533,-0.0048160
1.4050000,1.4050000,1.4050000,-0.0022325,-0.0002785,-0.1408555,-0.0022325,-0.0023308,-0.0047616
1.4075000,1.4075000,1.4075000,-0.0022086,-0.0002771,-0.1400974,-0.0022086,-0.0023087,-0.0047078
1.4100000,1.4100000,1.4100000,-0.0021849,-0.0002757,-0.1393447,-0.0021849,-0.0022868,-0.0046548
1.4125000,1.4125000,1.4125000,-0.0021615,-0.0002743,-0.1385974,-0.0021615,-0.0022651,-0.0046024
1.4150000,1.4150000,1.4150000,-0.0021384,-0.0002729,-0.1378554,-0.0021384,-0.0022437,-0.0045508
1.4175000,1.4175000,1.4175000,-0.0021156,-0.0002715,-0.1371188,-0.0021156,-0.0022226,-0.0044997
1.4200000,1.4200000,1.4200000,-0.0020931,-0.0002701,-0.1363874,-0.0020931,-0.0022017,-0.0044493
1.4225000,1.4225000,1.4225000,-0.0020709,-0.0002688,-0.1356612,-0.0020709,-0.0021810,-0.0043996
1.4250000,1.4250000,1.4250000,-0.0020489,-0.0002674,-0.1349402,-0.0020489,-0.0021606,-0.0043505
1.4275000,1.4275000,1.4275000,-0.0020272,-0.0002661,-0.1342243,-0.0020272,-0.0021405,-0.0043020
1.4300000,1.4300000,1.4300000,-0.0020058,-0.0002647,-0.1335135,-0.0020058,-0.0021205,-0.0042541
1.4325000,1.4325000,1.4325000,-0.0019847,-0.0002634,-0.1328076,-0.0019847,-0.0021008,-0.0042068
1.4350000,1.4350000,1.4350000,-0.0019638,-0.0002621,-0.1321068,-0.0019638,-0.0020814,-0.0041601
1.4375000,1.4375000,1.4375000,-0.0019431,-0.0002608,-0.1314109,-0.0019431,-0.0020621,-0.0041140
1.4400000,1.4400000,1.4400000,-0.0019227,-0.0002595,-0.1307199,-0.0019227,-0.0020431,-0.0040685
1.4425000,1.4425000,1.4425000,-0.0019026,-0.0002582,-0.1300338,-0.0019026,-0.0020243,-0.0040235
1.4450000,1.4450000,1.4450000,-0.0018827,-0.0002569,-0.1293524,-0.0018827,-0.0020057,-0.0039791
1.4475000,1.4475000,1.4475000,-0.0018631,-0.0002556,-0.1286758,-0.0018631,-0.0019873,-0.0039353
1.4500000,1.4500000,1.4500000,-0.0018437,-0.0002543,-0.1280040,-0.0018437,-0.0019692,-0.0038920
1.4525000,1.4525000,1.4525000,-0.0018245,-0.0002531,-0.1273368,-0.0018245,-0.0019512,-0.0038492
1.4550000,1.4550000,1.4550000,-0.0018055,-0.0002518,-0.1266743,-0.0018055,-0.0019335,-0.0038070
1.4575000,1.4575000,1.4575000,-0.0017868,-0.0002506,-0.1260164,-0.0017868,-0.0019159,-0.0037653
1.4600000,1.4600000,1.4600000,-0.0017683,-0.0002494,-0.1253630,-0.0017683,-0.0018986,-0.0037241
1.4625000,1.4625000,1.4625000,-0.0017501,-0.0002481,-0.1247142,-0.0017501,-0.0018814,-0.0036834
1.4650000,1.4650000,1.4650000,-0.0017320,-0.0002469,-0.1240698,-0.0017320,-0.0018644,-0.0036432
1.4675000,1.4675000,1.4675000,-0.0017142,-0.0002457,-0.1234299,-0.0017142,-0.0018477,-0.0036035
1.4700000,1.4700000,1.4700000,-0.0016966,-0.0002445,-0.1227944,-0.0016966,-0.0018311,-0.0035643
1.4725000,1.4725000,1.4725000,-0.0016792,-0.0002433,-0.1221632,-0.0016792,-0.0018147,-0.0035256
1.4750000,1.4750000,1.4750000,-0.0016620,-0.0002421,-0.1215364,-0.0016620,-0.0017985,-0.0034873
1.4775000,1.4775000,1.4775000,-0.0016450,-0.0002409,-0.1209139,-0.0016450,-0.0017825,-0.0034496
1.4800000,1.4800000,1.4800000,-0.0016283,-0.0002398,-0.1202956,-0.0016283,-0.0017666,-0.0034122
1.4825000,1.4825000,1.4825000,-0.0016117,-0.0002386,-0.1196815,-0.0016117,-0.0017509,-0.0033754
1.4850000,1.4850000,1.4850000,-0.0015953,-0.0002374,-0.1190717,-0.0015953,-0.0017354,-0.0033390
1.4875000,1.4875000,1.4875000,-0.0015791,-0.0002363,-0.1184660,-0.0015791,-0.0017201,-0.0033030
1.4900000,1.4900000,1.4900000,-0.0015631,-0.0002351,-0.1178644,-0.0015631,-0.0017050,-0.0032675
1.4925000,1.4925000,1.4925000,-0.0015473,-0.0002340,-0.1172668,-0.0015473,-0.0016900,-0.0032324
1.4950000,1.4950000,1.4950000,-0.0015317,-0.0002329,-0.1166733,-0.0015317,-0.0016751,-0.0031977
1.4975000,1.4975000,1.4975000,-0.0015162,-0.0002318,-0.1160839,-0.0015162,-0.0016605,-0.0031634
1.5000000,1.5000000,1.5000000,-0.0015010,-0.0002306,-0.1154984,-0.0015010,-0.0016460,-0.0031296
1.5025000,1.5025000,1.5025000,-0.0014859,-0.0002295,-0.1149168,-0.0014859,-0.0016316,-0.0030961
1.5050000,1.5050000,1.5050000,-0.0014710,-0.0002284,-0.1143391,-0.0014710,-0.0016175,-0.0030631
1.5075000,1.5075000,1.5075000,-0.0014562,-0.0002273,-0.1137654,-0.0014562,-0.0016034,-0.0030304
1.5100000,1.5100000,1.5100000,-0.0014417,-0.0002263,-0.1131954,-0.0014417,-0.0015896,-0.0029982
1.5125000,1.5125000,1.5125000,-0.0014273,-0.0002252,-0.1126293,-0.0014273,-0.0015758,-0.0029663
1.5150000,1.5150000,1.5150000,-0.0014131,-0.0002241,-0.1120670,-0.0014131,-0.0015623,-0.0029348
1.5175000,1.5175000,1.5175000,-0.0013990,-0.0002230,-0.1115084,-0.0013990,-0.0015488,-0.0029037
1.5200000,1.5200000,1.5200000,-0.0013851,-0.0002220,-0.1109535,-0.0013851,-0.0015355,-0.0028730
1.5225000,1.5225000,1.5225000,-0.0013714,-0.0002209,-0.1104023,-0.0013714,-0.0015224,-0.0028426
1.5250000,1.5250000,1.5250000,-0.0013578,-0.0002199,-0.1098547,-0.0013578,-0.0015094,-0.0028126
1.5275000,1.5275000,1.5275000,-0.0013444,-0.0002188,-0.1093108,-0.0013444,-0.0014966,-0.0027829
1.5300000,1.5300000,1.5300000,-0.0013312,-0.0002178,-0.1087705,-0.0013312,-0.0014838,-0.0027536
1.5325000,1.5325000,1.5325000,-0.0013181,-0.0002168,-0.1082337,-0.0013181,-0.0014713,-0.0027246
1.5350000,1.5350000,1.5350000,-0.0013051,-0.0002158,-0.1077005,-0.0013051,-0.0014588,-0.0026960
1.5375000,1.5375000,1.5375000,-0.0012923,-0.0002148,-0.1071708,-0.0012923,-0.0014465,-0.0026677
1.5400000,1.5400000,1.5400000,-0.0012796,-0.0002137,-0.1066445,-0.0012796,-0.0014343,-0.0026398
1.5425000,1.5425000,1.5425000,-0.0012671,-0.0002127,-0.1061217,-0.0012671,-0.0014222,-0.0026121
1.5450000,1.5450000,1.5450000,-0.0012547,-0.0002117,-0.1056024,-0.0012547,-0.0014103,-0.0025848
1.5475000,1.5475000,1.5475000,-0.0012425,-0.0002108,-0.1050864,-0.0012425,-0.0013985,-0.0025578
1.5500000,1.5500000,1.5500000,-0.0012304,-0.0002098,-0.1045738,-0.0012304,-0.0013868,-0.0025312
1.5525000,1.5525000,1.5525000,-0.0012185,-0.0002088,-0.1040645,-0.0012185,-0.0013753,-0.0025048
1.5550000,1.5550000,1.5550000,-0.0012066,-0.0002078,-0.1035585,-0.0012066,-0.0013639,-0.0024788
1.5575000,1.5575000,1.5575000,-0.0011950,-0.0002069,-0.1030558,-0.0011950,-0.0013525,-0.0024530
1.5600000,1.5600000,1.5600000,-0.0011834,-0.0002059,-0.1025564,-0.0011834,-0.0013414,-0.0024276
1.5625000,1.5625000,1.5625000,-0.0011720,-0.0002049,-0.1020602,-0.0011720,-0.0013303,-0.0024024
1.5650000,1.5650000,1.5650000,-0.0011607,-0.0002040,-0.1015672,-0.0011607,-0.0013193,-0.0023776
1.5675000,1.5675000,1.5675000,-0.0011495,-0.0002031,-0.1010774,-0.0011495,-0.0013085,-0.0023530
1.5700000,1.5700000,1.5700000,-0.0011385,-0.0002021,-0.1005907,-0.0011385,-0.0012977,-0.0023287
1.5725000,1.5725000,1.5725000,-0.0011275,-0.0002012,-0.1001072,-0.0011275,-0.0012871,-0.0023047
1.5750000,1.5750000,1.5750000,-0.0011167,-0.0002003,-0.0996267,-0.0011167,-0.0012766,-0.0022810
1.5775000,1.5775000,1.5775000,-0.0011061,-0.0001994,-0.0991494,-0.0011061,-0.0012662,-0.0022575
1.5800000,1.5800000,1.5800000,-0.0010955,-0.0001984,-0.0986750,-0.0010955,-0.0012559,-0.0022343
1.5825000,1.5825000,1.5825000,-0.0010851,-0.0001975,-0.0982038,-0.0010851,-0.0012457,-0.0022114
1.5850000,1.5850000,1.5850000,-0.0010747,-0.0001966,-0.0977355,-0.0010747,-0.0012356,-0.0021887
1.5875000,1.5875000,1.5875000,-0.0010645,-0.0001957,-0.0972702,-0.0010645,-0.0012257,-0.0021663
1.5900000,1.5900000,1.5900000,-0.0010544,-0.0001948,-0.0968078,-0.0010544,-0.0012158,-0.0021442
1.5925000,1.5925000,1.5925000,-0.0010445,-0.0001940,-0.0963484,-0.0010445,-0.0012060,-0.0021223
1.5950000,1.5950000,1.5950000,-0.0010346,-0.0001931,-0.0958919,-0.0010346,-0.0011963,-0.0021006
1.5975000,1.5975000,1.5975000,-0.0010248,-0.0001922,-0.0954383,-0.0010248,-0.0011867,-0.0020792
