# r[nm],d[nm],daligned[nm],U(d)[kj/mol],V(d)[e/nm],Uslab(d)[kJ/mol],UC(d)[kJ/mol],UK(d)[kJ/mol],UCl(d)[kJ/mol]
0.1725000,0.1725000,0.1725000,1782.3377315,-0.3396726,459.0875634,1782.3377315,1123.3494047,inf
0.1750000,0.1750000,0.1750000,1573.1847038,-0.3350731,397.7918766,1573.1847038,990.4282055,inf
0.1775000,0.1775000,0.1775000,1389.6259959,-0.3304895,344.9055295,1389.6259959,873.8406736,inf
0.1800000,0.1800000,0.1800000,1228.3883503,-0.3259249,299.2002283,1228.3883503,771.4938790,inf
0.1825000,0.1825000,0.1825000,1086.6352772,-0.3213822,259.6396177,1086.6352772,681.5744270,inf
0.1850000,0.1850000,0.1850000,961.9064992,-0.3168643,225.3472275,961.9064992,602.5096831,inf
0.1875000,0.1875000,0.1875000,852.0660734,-0.3123736,195.5801399,852.0660734,532.9345559,inf
0.1900000,0.1900000,0.1900000,755.2579139,-0.3079127,169.7072842,755.2579139,471.6630198,inf
0.1925000,0.1925000,0.1925000,669.8676286,-0.3034837,147.1914876,669.8676286,417.6636816,inf
0.1950000,0.1950000,0.1950000,594.4897477,-0.2990886,127.5745890,594.4897477,370.0388006,inf
0.1975000,0.1975000,0.1975000,527.8995585,-0.2947295,110.4650599,527.8995585,328.0062577,inf
0.2000000,0.2000000,0.2000000,469.0288793,-0.2904079,95.5276843,469.0288793,290.8840484,inf
0.2025000,0.2025000,0.2025000,416.9452029,-0.2861256,82.4749354,416.9452029,258.0769320,1780.3268114
0.2050000,0.2050000,0.2050000,370.8337264,-0.2818839,71.0597528,370.8337264,229.0649293,1588.4875054
0.2075000,0.2075000,0.2075000,329.9818538,-0.2776842,61.0694808,329.9818538,203.3933991,1418.2031822
0.2100000,0.2100000,0.2100000,293.7658194,-0.2735277,52.3207703,293.7658194,180.6644632,1266.9353445
0.2125000,0.2125000,0.2125000,261.6391320,-0.2694155,44.6552813,261.6391320,160.5295764,1132.4588832
0.2150000,0.2150000,0.2150000,233.1225801,-0.2653485,37.9360552,233.1225801,142.6830675,1012.8216283
0.2175000,0.2175000,0.2175000,207.7955768,-0.2613278,32.0444441,207.7955768,126.8565123,906.3093381
0.2200000,0.2200000,0.2200000,185.2886490,-0.2573544,26.8775096,185.2886490,112.8138404,811.4153672
0.2225000,0.2225000,0.2225000,165.2768997,-0.2534299,22.3458119,165.2768997,100.3471145,726.8143659
0.2250000,0.2250000,0.2250000,147.4743030,-0.2495569,18.3715306,147.4743030,89.2729419,651.3394536
0.2275000,0.2275000,0.2275000,131.6287203,-0.2457397,14.8868618,131.6287203,79.4294700,583.9623894
0.2300000,0.2300000,0.2300000,117.5175642,-0.2419853,11.8326508,117.5175642,70.6738944,523.7763328
0.2325000,0.2325000,0.2325000,104.9440617,-0.2383031,9.1572217,104.9440617,62.8803772,469.9808402
0.2350000,0.2350000,0.2350000,93.7340792,-0.2347050,6.8153761,93.7340792,55.9382542,421.8687976
0.2375000,0.2375000,0.2375000,83.7334565,-0.2312038,4.7675328,83.7334565,49.7504210,378.8150286
0.2400000,0.2400000,0.2400000,74.8057789,-0.2278115,2.9789895,74.8057789,44.2318171,340.2663546
0.2425000,0.2425000,0.2425000,66.8304895,-0.2245368,1.4192860,66.8304895,39.3079770,305.7329134
0.2450000,0.2450000,0.2450000,59.7012389,-0.2213831,0.0616551,59.7012389,34.9136545,274.7805679
0.2475000,0.2475000,0.2475000,53.3243820,-0.2183477,-1.1174552,53.3243820,30.9915517,247.0242595
0.2500000,0.2500000,0.2500000,47.6175638,-0.2154220,-2.1387987,47.6175638,27.4911858,222.1221742
0.2525000,0.2525000,0.2525000,42.5083721,-0.2125930,-3.0207010,42.5083721,24.3679102,199.7706111
0.2550000,0.2550000,0.2550000,37.9330704,-0.2098448,-3.7793889,37.9330704,21.5820934,179.6994603
0.2575000,0.2575000,0.2575000,33.8354335,-0.2071613,-4.4292843,33.8354335,19.0984406,161.6682187
0.2600000,0.2600000,0.2600000,30.1657122,-0.2045273,-4.9832642,30.1657122,16.8854361,145.4624948
0.2625000,0.2625000,0.2625000,26.8797392,-0.2019299,-5.4528821,26.8797392,14.9148828,130.8909664
0.2650000,0.2650000,0.2650000,23.9381739,-0.1993592,-5.8485494,23.9381739,13.1615160,117.7827579
0.2675000,0.2675000,0.2675000,21.3058742,-0.1968076,-6.1796771,21.3058742,11.6026711,105.9851999
0.2700000,0.2700000,0.2700000,18.9513749,-0.1942705,-6.4547813,18.9513749,10.2179908,95.3619158
0.2725000,0.2725000,0.2725000,16.8464535,-0.1917450,-6.6815614,16.8464535,8.9891566,85.7911731
0.2750000,0.2750000,0.2750000,14.9657631,-0.1892301,-6.8669565,14.9657631,7.8996393,77.1644312
0.2775000,0.2775000,0.2775000,13.2865157,-0.1867256,-7.0171874,13.2865157,6.9344636,69.3850241
0.2800000,0.2800000,0.2800000,11.7882035,-0.1842323,-7.1377845,11.7882035,6.0799930,62.3669368
0.2825000,0.2825000,0.2825000,10.4523445,-0.1817511,-7.2336024,10.4523445,5.3237431,56.0336515
0.2850000,0.2850000,0.2850000,9.2622471,-0.1792828,-7.3088234,9.2622471,4.6542382,50.3170630
0.2875000,0.2875000,0.2875000,8.2027881,-0.1768275,-7.3669566,8.2027881,4.0609197,45.1564747
0.2900000,0.2900000,0.2900000,7.2602059,-0.1743849,-7.4108416,7.2602059,3.5341120,40.4976872
0.2925000,0.2925000,0.2925000,6.4219170,-0.1719537,-7.4426707,6.4219170,3.0650380,36.2921902
0.2950000,0.2950000,0.2950000,5.6763629,-0.1695317,-7.4640366,5.6763629,2.6458654,32.4964610
0.2975000,0.2975000,0.2975000,5.0128995,-0.1671166,-7.4760112,5.0128995,2.2697590,29.0713616
0.3000000,0.3000000,0.3000000,4.4217345,-0.1647063,-7.4792503,4.4217345,1.9309120,25.9816273
0.3025000,0.3025000,0.3025000,3.8939114,-0.1622994,-7.4741147,3.8939114,1.6245332,23.1954315
0.3050000,0.3050000,0.3050000,3.4213298,-0.1598960,-7.4607958,3.4213298,1.3467841,20.6840140
0.3075000,0.3075000,0.3075000,2.9967848,-0.1574979,-7.4394324,2.9967848,1.0946659,18.4213611
0.3100000,0.3100000,0.3100000,2.6140030,-0.1551087,-7.4102082,2.6140030,0.8658749,16.3839267
0.3125000,0.3125000,0.3125000,2.2676543,-0.1527332,-7.3734233,2.2676543,0.6586420,14.5503851
0.3150000,0.3150000,0.3150000,1.9533257,-0.1503776,-7.3295334,1.9533257,0.4715790,12.9014092
0.3175000,0.3175000,0.3175000,1.6674521,-0.1480480,-7.2791582,1.6674521,0.3035433,11.4194672
0.3200000,0.3200000,0.3200000,1.4072100,-0.1457502,-7.2230569,1.4072100,0.1535291,10.0886327
0.3225000,0.3225000,0.3225000,1.1703868,-0.1434893,-7.1620805,1.1703868,0.0205884,8.8944074
0.3250000,0.3250000,0.3250000,0.9552423,-0.1412688,-7.0971067,0.9552423,-0.0962228,7.8235544
0.3275000,0.3275000,0.3275000,0.7603760,-0.1390911,-7.0289730,0.7603760,-0.1978764,6.8639456
0.3300000,0.3300000,0.3300000,0.5846113,-0.1369570,-6.9584199,0.5846113,-0.2853877,6.0044277
0.3325000,0.3325000,0.3325000,0.4269026,-0.1348659,-6.8860560,0.4269026,-0.3598196,5.2347117
0.3350000,0.3350000,0.3350000,0.2862658,-0.1328161,-6.8123509,0.2862658,-0.4222800,4.5452918
0.3375000,0.3375000,0.3375000,0.1617304,-0.1308044,-6.7376580,0.1617304,-0.4739136,3.9273957
0.3400000,0.3400000,0.3400000,0.0523093,-0.1288265,-6.6622611,0.0523093,-0.5158905,3.3729641
0.3425000,0.3425000,0.3425000,-0.0430168,-0.1268772,-6.5864344,-0.0430168,-0.5493925,2.8746539
0.3450000,0.3450000,0.3450000,-0.1253058,-0.1249501,-6.5105036,-0.1253058,-0.5755957,2.4258546
0.3475000,0.3475000,0.3475000,-0.1956532,-0.1230380,-6.4348935,-0.1956532,-0.5956528,2.0207057
0.3500000,0.3500000,0.3500000,-0.2551849,-0.1211331,-6.3601475,-0.2551849,-0.6106740,1.6541028
0.3525000,0.3525000,0.3525000,-0.3050478,-0.1192271,-6.2869115,-0.3050478,-0.6217084,1.3216833
0.3550000,0.3550000,0.3550000,-0.3463947,-0.1173119,-6.2158835,-0.3463947,-0.6297282,1.0197855
0.3575000,0.3575000,0.3575000,-0.3803685,-0.1153803,-6.1477448,-0.3803685,-0.6356136,0.7453847
0.3600000,0.3600000,0.3600000,-0.4080841,-0.1134260,-6.0830911,-0.4080841,-0.6401397,0.4960078
0.3625000,0.3625000,0.3625000,-0.4306104,-0.1114452,-6.0223760,-0.4306104,-0.6439662,0.2696385
0.3650000,0.3650000,0.3650000,-0.4489535,-0.1094362,-5.9658734,-0.4489535,-0.6476277,0.0646187
0.3675000,0.3675000,0.3675000,-0.4640415,-0.1074005,-5.9136531,-0.4640415,-0.6515280,-0.1204431
0.3700000,0.3700000,0.3700000,-0.4767117,-0.1053425,-5.8655722,-0.4767117,-0.6559385,-0.2867537
0.3725000,0.3725000,0.3725000,-0.4876996,-0.1032695,-5.8212817,-0.4876996,-0.6610020,-0.4354020
0.3750000,0.3750000,0.3750000,-0.4976298,-0.1011909,-5.7802537,-0.4976298,-0.6667435,-0.5674113
0.3775000,0.3775000,0.3775000,-0.5070091,-0.0991178,-5.7418273,-0.5070091,-0.6730853,-0.6837783
0.3800000,0.3800000,0.3800000,-0.5162228,-0.0970618,-5.7052661,-0.5162228,-0.6798687,-0.7854995
0.3825000,0.3825000,0.3825000,-0.5255355,-0.0950343,-5.6698174,-0.5255355,-0.6868775,-0.8735872
0.3850000,0.3850000,0.3850000,-0.5350959,-0.0930458,-5.6347648,-0.5350959,-0.6938639,-0.9490780
0.3875000,0.3875000,0.3875000,-0.5449481,-0.0911043,-5.5994738,-0.5449481,-0.7005744,-1.0130329
0.3900000,0.3900000,0.3900000,-0.5550472,-0.0892151,-5.5634304,-0.5550472,-0.7067751,-1.0665331
0.3925000,0.3925000,0.3925000,-0.5652794,-0.0873800,-5.5262722,-0.5652794,-0.7122734,-1.1106701
0.3950000,0.3950000,0.3950000,-0.5754831,-0.0855973,-5.4878094,-0.5754831,-0.7169354,-1.1465326
0.3975000,0.3975000,0.3975000,-0.5854727,-0.0838616,-5.4480253,-0.5854727,-0.7206948,-1.1751920
0.4000000,0.4000000,0.4000000,-0.5950603,-0.0821656,-5.4070542,-0.5950603,-0.7235533,-1.1976863
0.4025000,0.4025000,0.4025000,-0.6040764,-0.0805007,-5.3651374,-0.6040764,-0.7255721,-1.2150060
0.4050000,0.4050000,0.4050000,-0.6123861,-0.0788592,-5.3225677,-0.6123861,-0.7268584,-1.2280798
0.4075000,0.4075000,0.4075000,-0.6199005,-0.0772358,-5.2796378,-0.6199005,-0.7275496,-1.2377630
0.4100000,0.4100000,0.4100000,-0.6265815,-0.0756283,-5.2366056,-0.6265815,-0.7278001,-1.2448270
0.4125000,0.4125000,0.4125000,-0.6324397,-0.0740386,-5.1936808,-0.6324397,-0.7277709,-1.2499505
0.4150000,0.4150000,0.4150000,-0.6375277,-0.0724716,-5.1510246,-0.6375277,-0.7276227,-1.2537127
0.4175000,0.4175000,0.4175000,-0.6419303,-0.0709348,-5.1087534,-0.6419303,-0.7275112,-1.2565883
0.4200000,0.4200000,0.4200000,-0.6457558,-0.0694358,-5.0669372,-0.6457558,-0.7275820,-1.2589459
0.4225000,0.4225000,0.4225000,-0.6491274,-0.0679811,-5.0255917,-0.6491274,-0.7279660,-1.2610509
0.4250000,0.4250000,0.4250000,-0.6521779,-0.0665739,-4.9846693,-0.6521779,-0.7287752,-1.2630716
0.4275000,0.4275000,0.4275000,-0.6550442,-0.0652135,-4.9440570,-0.6550442,-0.7300990,-1.2650906
0.4300000,0.4300000,0.4300000,-0.6578628,-0.0638948,-4.9035849,-0.6578628,-0.7320016,-1.2671195
0.4325000,0.4325000,0.4325000,-0.6607649,-0.0626092,-4.8630467,-0.6607649,-0.7345204,-1.2691163
0.4350000,0.4350000,0.4350000,-0.6638710,-0.0613459,-4.8222239,-0.6638710,-0.7376662,-1.2710038
0.4375000,0.4375000,0.4375000,-0.6672861,-0.0600941,-4.7809075,-0.6672861,-0.7414230,-1.2726881
0.4400000,0.4400000,0.4400000,-0.6710961,-0.0588442,-4.7389131,-0.6710961,-0.7457494,-1.2740753
0.4425000,0.4425000,0.4425000,-0.6753645,-0.0575896,-4.6960882,-0.6753645,-0.7505794,-1.2750843
0.4450000,0.4450000,0.4450000,-0.6801310,-0.0563270,-4.6523134,-0.6801310,-0.7558255,-1.2756568
0.4475000,0.4475000,0.4475000,-0.6854104,-0.0550563,-4.6075029,-0.6854104,-0.7613828,-1.2757617
0.4500000,0.4500000,0.4500000,-0.6911928,-0.0537797,-4.5616029,-0.6911928,-0.7671356,-1.2753962
0.4525000,0.4525000,0.4525000,-0.6974446,-0.0525001,-4.5145914,-0.6974446,-0.7729648,-1.2745843
0.4550000,0.4550000,0.4550000,-0.7041111,-0.0512194,-4.4664762,-0.7041111,-0.7787551,-1.2733729
0.4575000,0.4575000,0.4575000,-0.7111203,-0.0499375,-4.4172936,-0.7111203,-0.7844008,-1.2718274
0.4600000,0.4600000,0.4600000,-0.7183884,-0.0486517,-4.3671049,-0.7183884,-0.7898099,-1.2700267
0.4625000,0.4625000,0.4625000,-0.7258245,-0.0473571,-4.3159928,-0.7258245,-0.7949053,-1.2680579
0.4650000,0.4650000,0.4650000,-0.7333350,-0.0460482,-4.2640569,-0.7333350,-0.7996229,-1.2660111
0.4675000,0.4675000,0.4675000,-0.7408270,-0.0447206,-4.2114088,-0.7408270,-0.8039088,-1.2639747
0.4700000,0.4700000,0.4700000,-0.7482110,-0.0433722,-4.1581679,-0.7482110,-0.8077146,-1.2620319
0.4725000,0.4725000,0.4725000,-0.7554027,-0.0420041,-4.1044568,-0.7554027,-0.8109928,-1.2602580
0.4750000,0.4750000,0.4750000,-0.7623230,-0.0406211,-4.0503983,-0.7623230,-0.8136947,-1.2587185
0.4775000,0.4775000,0.4775000,-0.7688982,-0.0392307,-3.9961120,-0.7688982,-0.8157683,-1.2574690
0.4800000,0.4800000,0.4800000,-0.7750585,-0.0378423,-3.9417126,-0.7750585,-0.8171602,-1.2565533
0.4825000,0.4825000,0.4825000,-0.7807364,-0.0364662,-3.8873080,-0.7807364,-0.8178180,-1.2560033
0.4850000,0.4850000,0.4850000,-0.7858657,-0.0351119,-3.8329985,-0.7858657,-0.8176952,-1.2558379
0.4875000,0.4875000,0.4875000,-0.7903807,-0.0337882,-3.7788759,-0.7903807,-0.8167567,-1.2560622
0.4900000,0.4900000,0.4900000,-0.7942171,-0.0325019,-3.7250234,-0.7942171,-0.8149816,-1.2566672
0.4925000,0.4925000,0.4925000,-0.7973148,-0.0312580,-3.6715159,-0.7973148,-0.8123657,-1.2576291
0.4950000,0.4950000,0.4950000,-0.7996205,-0.0300592,-3.6184198,-0.7996205,-0.8089193,-1.2589096
0.4975000,0.4975000,0.4975000,-0.8010928,-0.0289069,-3.5657934,-0.8010928,-0.8046644,-1.2604553
0.5000000,0.5000000,0.5000000,-0.8017040,-0.0278004,-3.5136879,-0.8017040,-0.7996315,-1.2621995
0.5025000,0.5025000,0.5025000,-0.8014415,-0.0267384,-3.4621473,-0.8014415,-0.7938578,-1.2640637
0.5050000,0.5050000,0.5050000,-0.8003058,-0.0257187,-3.4112091,-0.8003058,-0.7873864,-1.2659612
0.5075000,0.5075000,0.5075000,-0.7983087,-0.0247395,-3.3609052,-0.7983087,-0.7802667,-1.2678005
0.5100000,0.5100000,0.5100000,-0.7954699,-0.0237991,-3.3112620,-0.7954699,-0.7725530,-1.2694891
0.5125000,0.5125000,0.5125000,-0.7918165,-0.0228970,-3.2623012,-0.7918165,-0.7643019,-1.2709363
0.5150000,0.5150000,0.5150000,-0.7873822,-0.0220330,-3.2140400,-0.7873822,-0.7555690,-1.2720551
0.5175000,0.5175000,0.5175000,-0.7822068,-0.0212077,-3.1664920,-0.7822068,-0.7464047,-1.2727627
0.5200000,0.5200000,0.5200000,-0.7763353,-0.0204219,-3.1196672,-0.7763353,-0.7368524,-1.2729808
0.5225000,0.5225000,0.5225000,-0.7698157,-0.0196766,-3.0735726,-0.7698157,-0.7269477,-1.2726360
0.5250000,0.5250000,0.5250000,-0.7626957,-0.0189728,-3.0282126,-0.7626957,-0.7167188,-1.2716602
0.5275000,0.5275000,0.5275000,-0.7550202,-0.0183110,-2.9835893,-0.7550202,-0.7061893,-1.2699924
0.5300000,0.5300000,0.5300000,-0.7468294,-0.0176916,-2.9397024,-0.7468294,-0.6953801,-1.2675798
0.5325000,0.5325000,0.5325000,-0.7381584,-0.0171146,-2.8965502,-0.7381584,-0.6843116,-1.2643796
0.5350000,0.5350000,0.5350000,-0.7290378,-0.0165793,-2.8541291,-0.7290378,-0.6730057,-1.2603588
0.5375000,0.5375000,0.5375000,-0.7194951,-0.0160848,-2.8124345,-0.7194951,-0.6614866,-1.2554945
0.5400000,0.5400000,0.5400000,-0.7095567,-0.0156297,-2.7714603,-0.7095567,-0.6497809,-1.2497732
0.5425000,0.5425000,0.5425000,-0.6992494,-0.0152120,-2.7311996,-0.6992494,-0.6379177,-1.2431909
0.5450000,0.5450000,0.5450000,-0.6886016,-0.0148298,-2.6916446,-0.6886016,-0.6259280,-1.2357524
0.5475000,0.5475000,0.5475000,-0.6776440,-0.0144807,-2.6527868,-0.6776440,-0.6138438,-1.2274712
0.5500000,0.5500000,0.5500000,-0.6664095,-0.0141623,-2.6146169,-0.6664095,-0.6016976,-1.2183687
0.5525000,0.5525000,0.5525000,-0.6549333,-0.0138719,-2.5771255,-0.6549333,-0.5895212,-1.2084726
0.5550000,0.5550000,0.5550000,-0.6432520,-0.0136071,-2.5403024,-0.6432520,-0.5773457,-1.1978154
0.5575000,0.5575000,0.5575000,-0.6314031,-0.0133655,-2.5041374,-0.6314031,-0.5652003,-1.1864320
0.5600000,0.5600000,0.5600000,-0.6194243,-0.0131446,-2.4686198,-0.6194243,-0.5531124,-1.1743581
0.5625000,0.5625000,0.5625000,-0.6073525,-0.0129423,-2.4337387,-0.6073525,-0.5411070,-1.1616296
0.5650000,0.5650000,0.5650000,-0.5952234,-0.0127563,-2.3994834,-0.5952234,-0.5292070,-1.1482815
0.5675000,0.5675000,0.5675000,-0.5830709,-0.0125849,-2.3658426,-0.5830709,-0.5174327,-1.1343488
0.5700000,0.5700000,0.5700000,-0.5709270,-0.0124263,-2.3328054,-0.5709270,-0.5058021,-1.1198665
0.5725000,0.5725000,0.5725000,-0.5588210,-0.0122789,-2.3003607,-0.5588210,-0.4943306,-1.1048707
0.5750000,0.5750000,0.5750000,-0.5467798,-0.0121412,-2.2684973,-0.5467798,-0.4830317,-1.0893989
0.5775000,0.5775000,0.5775000,-0.5348277,-0.0120120,-2.2372043,-0.5348277,-0.4719166,-1.0734908
0.5800000,0.5800000,0.5800000,-0.5229865,-0.0118902,-2.2064707,-0.5229865,-0.4609948,-1.0571881
0.5825000,0.5825000,0.5825000,-0.5112753,-0.0117747,-2.1762856,-0.5112753,-0.4502738,-1.0405342
0.5850000,0.5850000,0.5850000,-0.4997107,-0.0116646,-2.1466382,-0.4997107,-0.4397596,-1.0235743
0.5875000,0.5875000,0.5875000,-0.4883072,-0.0115593,-2.1175180,-0.4883072,-0.4294568,-1.0063546
0.5900000,0.5900000,0.5900000,-0.4770772,-0.0114580,-2.0889144,-0.4770772,-0.4193688,-0.9889216
0.5925000,0.5925000,0.5925000,-0.4660309,-0.0113602,-2.0608170,-0.4660309,-0.4094975,-0.9713217
0.5950000,0.5950000,0.5950000,-0.4551768,-0.0112652,-2.0332157,-0.4551768,-0.3998443,-0.9536000
0.5975000,0.5975000,0.5975000,-0.4445219,-0.0111728,-2.0061004,-0.4445219,-0.3904092,-0.9358005
0.6000000,0.6000000,0.6000000,-0.4340716,-0.0110825,-1.9794612,-0.4340716,-0.3811920,-0.9179653
0.6025000,0.6025000,0.6025000,-0.4238298,-0.0109940,-1.9532884,-0.4238298,-0.3721912,-0.9001338
0.6050000,0.6050000,0.6050000,-0.4137996,-0.0109071,-1.9275724,-0.4137996,-0.3634054,-0.8823432
0.6075000,0.6075000,0.6075000,-0.4039829,-0.0108214,-1.9023040,-0.4039829,-0.3548321,-0.8646278
0.6100000,0.6100000,0.6100000,-0.3943805,-0.0107368,-1.8774739,-0.3943805,-0.3464688,-0.8470189
0.6125000,0.6125000,0.6125000,-0.3849925,-0.0106532,-1.8530731,-0.3849925,-0.3383124,-0.8295450
0.6150000,0.6150000,0.6150000,-0.3758185,-0.0105704,-1.8290928,-0.3758185,-0.3303598,-0.8122319
0.6175000,0.6175000,0.6175000,-0.3668573,-0.0104883,-1.8055243,-0.3668573,-0.3226074,-0.7951022
0.6200000,0.6200000,0.6200000,-0.3581071,-0.0104067,-1.7823592,-0.3581071,-0.3150515,-0.7781762
0.6225000,0.6225000,0.6225000,-0.3495658,-0.0103257,-1.7595892,-0.3495658,-0.3076882,-0.7614715
0.6250000,0.6250000,0.6250000,-0.3412308,-0.0102451,-1.7372061,-0.3412308,-0.3005136,-0.7450032
0.6275000,0.6275000,0.6275000,-0.3330994,-0.0101649,-1.7152021,-0.3330994,-0.2935236,-0.7287843
0.6300000,0.6300000,0.6300000,-0.3251683,-0.0100851,-1.6935693,-0.3251683,-0.2867141,-0.7128256
0.6325000,0.6325000,0.6325000,-0.3174343,-0.0100057,-1.6723001,-0.3174343,-0.2800810,-0.6971363
0.6350000,0.6350000,0.6350000,-0.3098937,-0.0099265,-1.6513872,-0.3098937,-0.2736200,-0.6817235
0.6375000,0.6375000,0.6375000,-0.3025430,-0.0098477,-1.6308232,-0.3025430,-0.2673271,-0.6665930
0.6400000,0.6400000,0.6400000,-0.2953782,-0.0097691,-1.6106010,-0.2953782,-0.2611981,-0.6517490
0.6425000,0.6425000,0.6425000,-0.2883956,-0.0096909,-1.5907137,-0.2883956,-0.2552288,-0.6371946
0.6450000,0.6450000,0.6450000,-0.2815912,-0.0096129,-1.5711544,-0.2815912,-0.2494152,-0.6229316
0.6475000,0.6475000,0.6475000,-0.2749610,-0.0095353,-1.5519166,-0.2749610,-0.2437533,-0.6089608
0.6500000,0.6500000,0.6500000,-0.2685010,-0.0094579,-1.5329937,-0.2685010,-0.2382391,-0.5952822
0.6525000,0.6525000,0.6525000,-0.2622073,-0.0093808,-1.5143794,-0.2622073,-0.2328686,-0.5818950
0.6550000,0.6550000,0.6550000,-0.2560758,-0.0093041,-1.4960675,-0.2560758,-0.2276381,-0.5687976
0.6575000,0.6575000,0.6575000,-0.2501026,-0.0092277,-1.4780520,-0.2501026,-0.2225437,-0.5559879
0.6600000,0.6600000,0.6600000,-0.2442837,-0.0091516,-1.4603268,-0.2442837,-0.2175818,-0.5434632
0.6625000,0.6625000,0.6625000,-0.2386153,-0.0090758,-1.4428862,-0.2386153,-0.2127488,-0.5312204
0.6650000,0.6650000,0.6650000,-0.2330935,-0.0090005,-1.4257247,-0.2330935,-0.2080411,-0.5192560
0.6675000,0.6675000,0.6675000,-0.2277146,-0.0089255,-1.4088365,-0.2277146,-0.2034552,-0.5075660
0.6700000,0.6700000,0.6700000,-0.2224748,-0.0088508,-1.3922164,-0.2224748,-0.1989879,-0.4961465
0.6725000,0.6725000,0.6725000,-0.2173704,-0.0087766,-1.3758590,-0.2173704,-0.1946357,-0.4849929
0.6750000,0.6750000,0.6750000,-0.2123980,-0.0087028,-1.3597592,-0.2123980,-0.1903955,-0.4741008
0.6775000,0.6775000,0.6775000,-0.2075538,-0.0086294,-1.3439120,-0.2075538,-0.1862641,-0.4634654
0.6800000,0.6800000,0.6800000,-0.2028346,-0.0085564,-1.3283124,-0.2028346,-0.1822386,-0.4530819
0.6825000,0.6825000,0.6825000,-0.1982370,-0.0084839,-1.3129556,-0.1982370,-0.1783159,-0.4429454
0.6850000,0.6850000,0.6850000,-0.1937576,-0.0084119,-1.2978369,-0.1937576,-0.1744932,-0.4330510
0.6875000,0.6875000,0.6875000,-0.1893932,-0.0083403,-1.2829517,-0.1893932,-0.1707677,-0.4233934
0.6900000,0.6900000,0.6900000,-0.1851407,-0.0082691,-1.2682955,-0.1851407,-0.1671365,-0.4139679
0.6925000,0.6925000,0.6925000,-0.1809971,-0.0081985,-1.2538640,-0.1809971,-0.1635972,-0.4047691
0.6950000,0.6950000,0.6950000,-0.1769593,-0.0081283,-1.2396527,-0.1769593,-0.1601470,-0.3957922
0.6975000,0.6975000,0.6975000,-0.1730245,-0.0080587,-1.2256576,-0.1730245,-0.1567835,-0.3870321
0.7000000,0.7000000,0.7000000,-0.1691897,-0.0079895,-1.2118745,-0.1691897,-0.1535043,-0.3784838
0.7025000,0.7025000,0.7025000,-0.1654523,-0.0079209,-1.1982993,-0.1654523,-0.1503070,-0.3701424
0.7050000,0.7050000,0.7050000,-0.1618096,-0.0078527,-1.1849283,-0.1618096,-0.1471893,-0.3620029
0.7075000,0.7075000,0.7075000,-0.1582589,-0.0077851,-1.1717575,-0.1582589,-0.1441490,-0.3540607
0.7100000,0.7100000,0.7100000,-0.1547978,-0.0077180,-1.1587832,-0.1547978,-0.1411839,-0.3463108
0.7125000,0.7125000,0.7125000,-0.1514237,-0.0076515,-1.1460017,-0.1514237,-0.1382919,-0.3387487
0.7150000,0.7150000,0.7150000,-0.1481342,-0.0075854,-1.1334095,-0.1481342,-0.1354710,-0.3313696
0.7175000,0.7175000,0.7175000,-0.1449270,-0.0075200,-1.1210030,-0.1449270,-0.1327192,-0.3241692
0.7200000,0.7200000,0.7200000,-0.1417998,-0.0074550,-1.1087788,-0.1417998,-0.1300346,-0.3171430
0.7225000,0.7225000,0.7225000,-0.1387505,-0.0073906,-1.0967335,-0.1387505,-0.1274153,-0.3102865
0.7250000,0.7250000,0.7250000,-0.1357769,-0.0073268,-1.0848639,-0.1357769,-0.1248596,-0.3035956
0.7275000,0.7275000,0.7275000,-0.1328768,-0.0072635,-1.0731668,-0.1328768,-0.1223656,-0.2970660
0.7300000,0.7300000,0.7300000,-0.1300483,-0.0072007,-1.0616390,-0.1300483,-0.1199316,-0.2906937
0.7325000,0.7325000,0.7325000,-0.1272894,-0.0071385,-1.0502774,-0.1272894,-0.1175561,-0.2844747
0.7350000,0.7350000,0.7350000,-0.1245983,-0.0070768,-1.0390791,-0.1245983,-0.1152374,-0.2784051
0.7375000,0.7375000,0.7375000,-0.1219729,-0.0070157,-1.0280411,-0.1219729,-0.1129740,-0.2724811
0.7400000,0.7400000,0.7400000,-0.1194117,-0.0069552,-1.0171605,-0.1194117,-0.1107643,-0.2666988
0.7425000,0.7425000,0.7425000,-0.1169127,-0.0068952,-1.0064344,-0.1169127,-0.1086069,-0.2610548
0.7450000,0.7450000,0.7450000,-0.1144743,-0.0068357,-0.9958603,-0.1144743,-0.1065004,-0.2555454
0.7475000,0.7475000,0.7475000,-0.1120949,-0.0067768,-0.9854353,-0.1120949,-0.1044434,-0.2501672
0.7500000,0.7500000,0.7500000,-0.1097729,-0.0067184,-0.9751568,-0.1097729,-0.1024345,-0.2449168
0.7525000,0.7525000,0.7525000,-0.1075066,-0.0066606,-0.9650222,-0.1075066,-0.1004726,-0.2397910
0.7550000,0.7550000,0.7550000,-0.1052947,-0.0066033,-0.9550291,-0.1052947,-0.0985562,-0.2347864
0.7575000,0.7575000,0.7575000,-0.1031356,-0.0065465,-0.9451749,-0.1031356,-0.0966843,-0.2299001
0.7600000,0.7600000,0.7600000,-0.1010279,-0.0064903,-0.9354571,-0.1010279,-0.0948555,-0.2251288
0.7625000,0.7625000,0.7625000,-0.0989703,-0.0064347,-0.9258735,-0.0989703,-0.0930688,-0.2204698
0.7650000,0.7650000,0.7650000,-0.0969614,-0.0063795,-0.9164217,-0.0969614,-0.0913231,-0.2159200
0.7675000,0.7675000,0.7675000,-0.0949998,-0.0063249,-0.9070994,-0.0949998,-0.0896172,-0.2114767
0.7700000,0.7700000,0.7700000,-0.0930844,-0.0062708,-0.8979045,-0.0930844,-0.0879501,-0.2071372
0.7725000,0.7725000,0.7725000,-0.0912139,-0.0062173,-0.8888346,-0.0912139,-0.0863208,-0.2028987
0.7750000,0.7750000,0.7750000,-0.0893872,-0.0061642,-0.8798877,-0.0893872,-0.0847283,-0.1987588
0.7775000,0.7775000,0.7775000,-0.0876030,-0.0061117,-0.8710617,-0.0876030,-0.0831717,-0.1947147
0.7800000,0.7800000,0.7800000,-0.0858602,-0.0060597,-0.8623545,-0.0858602,-0.0816499,-0.1907642
0.7825000,0.7825000,0.7825000,-0.0841578,-0.0060082,-0.8537642,-0.0841578,-0.0801622,-0.1869047
0.7850000,0.7850000,0.7850000,-0.0824947,-0.0059573,-0.8452887,-0.0824947,-0.0787076,-0.1831341
0.7875000,0.7875000,0.7875000,-0.0808699,-0.0059068,-0.8369261,-0.0808699,-0.0772852,-0.1794499
0.7900000,0.7900000,0.7900000,-0.0792823,-0.0058568,-0.8286746,-0.0792823,-0.0758943,-0.1758501
0.7925000,0.7925000,0.7925000,-0.0777311,-0.0058073,-0.8205323,-0.0777311,-0.0745340,-0.1723324
0.7950000,0.7950000,0.7950000,-0.0762152,-0.0057583,-0.8124973,-0.0762152,-0.0732036,-0.1688948
0.7975000,0.7975000,0.7975000,-0.0747337,-0.0057098,-0.8045679,-0.0747337,-0.0719022,-0.1655353
0.8000000,0.8000000,0.8000000,-0.0732858,-0.0056618,-0.7967424,-0.0732858,-0.0706292,-0.1622518
0.8025000,0.8025000,0.8025000,-0.0718706,-0.0056142,-0.7890190,-0.0718706,-0.0693839,-0.1590425
0.8050000,0.8050000,0.8050000,-0.0704873,-0.0055672,-0.7813960,-0.0704873,-0.0681654,-0.1559055
0.8075000,0.8075000,0.8075000,-0.0691350,-0.0055206,-0.7738719,-0.0691350,-0.0669733,-0.1528389
0.8100000,0.8100000,0.8100000,-0.0678129,-0.0054745,-0.7664450,-0.0678129,-0.0658067,-0.1498411
0.8125000,0.8125000,0.8125000,-0.0665204,-0.0054288,-0.7591137,-0.0665204,-0.0646651,-0.1469102
0.8150000,0.8150000,0.8150000,-0.0652565,-0.0053836,-0.7518766,-0.0652565,-0.0635478,-0.1440446
0.8175000,0.8175000,0.8175000,-0.0640207,-0.0053388,-0.7447319,-0.0640207,-0.0624542,-0.1412427
0.8200000,0.8200000,0.8200000,-0.0628121,-0.0052946,-0.7376784,-0.0628121,-0.0613839,-0.1385029
0.8225000,0.8225000,0.8225000,-0.0616302,-0.0052507,-0.7307145,-0.0616302,-0.0603360,-0.1358236
0.8250000,0.8250000,0.8250000,-0.0604742,-0.0052073,-0.7238388,-0.0604742,-0.0593102,-0.1332034
0.8275000,0.8275000,0.8275000,-0.0593436,-0.0051643,-0.7170499,-0.0593436,-0.0583059,-0.1306408
0.8300000,0.8300000,0.8300000,-0.0582376,-0.0051218,-0.7103464,-0.0582376,-0.0573225,-0.1281343
0.8325000,0.8325000,0.8325000,-0.0571556,-0.0050797,-0.7037270,-0.0571556,-0.0563596,-0.1256826
0.8350000,0.8350000,0.8350000,-0.0560971,-0.0050380,-0.6971903,-0.0560971,-0.0554167,-0.1232844
0.8375000,0.8375000,0.8375000,-0.0550615,-0.0049967,-0.6907350,-0.0550615,-0.0544932,-0.1209383
0.8400000,0.8400000,0.8400000,-0.0540482,-0.0049559,-0.6843599,-0.0540482,-0.0535887,-0.1186431
0.8425000,0.8425000,0.8425000,-0.0530566,-0.0049155,-0.6780637,-0.0530566,-0.0527027,-0.1163974
0.8450000,0.8450000,0.8450000,-0.0520863,-0.0048754,-0.6718452,-0.0520863,-0.0518348,-0.1142002
0.8475000,0.8475000,0.8475000,-0.0511367,-0.0048358,-0.6657032,-0.0511367,-0.0509846,-0.1120503
0.8500000,0.8500000,0.8500000,-0.0502074,-0.0047966,-0.6596365,-0.0502074,-0.0501517,-0.1099464
0.8525000,0.8525000,0.8525000,-0.0492977,-0.0047578,-0.6536439,-0.0492977,-0.0493355,-0.1078875
0.8550000,0.8550000,0.8550000,-0.0484073,-0.0047193,-0.6477244,-0.0484073,-0.0485359,-0.1058726
0.8575000,0.8575000,0.8575000,-0.0475357,-0.0046813,-0.6418767,-0.0475357,-0.0477522,-0.1039004
0.8600000,0.8600000,0.8600000,-0.0466824,-0.0046436,-0.6360998,-0.0466824,-0.0469843,-0.1019701
0.8625000,0.8625000,0.8625000,-0.0458469,-0.0046063,-0.6303926,-0.0458469,-0.0462316,-0.1000806
0.8650000,0.8650000,0.8650000,-0.0450290,-0.0045694,-0.6247541,-0.0450290,-0.0454939,-0.0982310
0.8675000,0.8675000,0.8675000,-0.0442280,-0.0045329,-0.6191832,-0.0442280,-0.0447708,-0.0964203
0.8700000,0.8700000,0.8700000,-0.0434438,-0.0044967,-0.6136789,-0.0434438,-0.0440620,-0.0946475
0.8725000,0.8725000,0.8725000,-0.0426757,-0.0044609,-0.6082402,-0.0426757,-0.0433670,-0.0929118
0.8750000,0.8750000,0.8750000,-0.0419235,-0.0044254,-0.6028661,-0.0419235,-0.0426857,-0.0912124
0.8775000,0.8775000,0.8775000,-0.0411868,-0.0043903,-0.5975556,-0.0411868,-0.0420177,-0.0895483
0.8800000,0.8800000,0.8800000,-0.0404653,-0.0043556,-0.5923079,-0.0404653,-0.0413627,-0.0879187
0.8825000,0.8825000,0.8825000,-0.0397585,-0.0043212,-0.5871220,-0.0397585,-0.0407204,-0.0863228
0.8850000,0.8850000,0.8850000,-0.0390661,-0.0042871,-0.5819969,-0.0390661,-0.0400905,-0.0847599
0.8875000,0.8875000,0.8875000,-0.0383878,-0.0042534,-0.5769317,-0.0383878,-0.0394728,-0.0832292
0.8900000,0.8900000,0.8900000,-0.0377232,-0.0042200,-0.5719257,-0.0377232,-0.0388668,-0.0817298
0.8925000,0.8925000,0.8925000,-0.0370721,-0.0041870,-0.5669779,-0.0370721,-0.0382725,-0.0802612
0.8950000,0.8950000,0.8950000,-0.0364341,-0.0041543,-0.5620874,-0.0364341,-0.0376895,-0.0788225
0.8975000,0.8975000,0.8975000,-0.0358090,-0.0041219,-0.5572535,-0.0358090,-0.0371175,-0.0774131
0.9000000,0.9000000,0.9000000,-0.0351963,-0.0040898,-0.5524753,-0.0351963,-0.0365564,-0.0760324
0.9025000,0.9025000,0.9025000,-0.0345960,-0.0040580,-0.5477520,-0.0345960,-0.0360059,-0.0746796
0.9050000,0.9050000,0.9050000,-0.0340075,-0.0040266,-0.5430828,-0.0340075,-0.0354657,-0.0733541
0.9075000,0.9075000,0.9075000,-0.0334308,-0.0039955,-0.5384669,-0.0334308,-0.0349357,-0.0720553
0.9100000,0.9100000,0.9100000,-0.0328655,-0.0039647,-0.5339036,-0.0328655,-0.0344155,-0.0707826
0.9125000,0.9125000,0.9125000,-0.0323114,-0.0039341,-0.5293922,-0.0323114,-0.0339050,-0.0695355
0.9150000,0.9150000,0.9150000,-0.0317682,-0.0039039,-0.5249318,-0.0317682,-0.0334040,-0.0683132
0.9175000,0.9175000,0.9175000,-0.0312356,-0.0038740,-0.5205217,-0.0312356,-0.0329122,-0.0671153
0.9200000,0.9200000,0.9200000,-0.0307135,-0.0038444,-0.5161613,-0.0307135,-0.0324295,-0.0659412
0.9225000,0.9225000,0.9225000,-0.0302016,-0.0038150,-0.5118499,-0.0302016,-0.0319557,-0.0647904
0.9250000,0.9250000,0.9250000,-0.0296997,-0.0037860,-0.5075867,-0.0296997,-0.0314905,-0.0636624
0.9275000,0.9275000,0.9275000,-0.0292075,-0.0037572,-0.5033710,-0.0292075,-0.0310339,-0.0625566
0.9300000,0.9300000,0.9300000,-0.0287248,-0.0037287,-0.4992023,-0.0287248,-0.0305855,-0.0614725
0.9325000,0.9325000,0.9325000,-0.0282514,-0.0037005,-0.4950798,-0.0282514,-0.0301452,-0.0604098
0.9350000,0.9350000,0.9350000,-0.0277872,-0.0036726,-0.4910029,-0.0277872,-0.0297129,-0.0593678
0.9375000,0.9375000,0.9375000,-0.0273319,-0.0036449,-0.4869710,-0.0273319,-0.0292884,-0.0583462
0.9400000,0.9400000,0.9400000,-0.0268853,-0.0036175,-0.4829834,-0.0268853,-0.0288715,-0.0573444
0.9425000,0.9425000,0.9425000,-0.0264472,-0.0035904,-0.4790395,-0.0264472,-0.0284620,-0.0563622
0.9450000,0.9450000,0.9450000,-0.0260174,-0.0035635,-0.4751388,-0.0260174,-0.0280599,-0.0553989
0.9475000,0.9475000,0.9475000,-0.0255959,-0.0035369,-0.4712807,-0.0255959,-0.0276649,-0.0544543
0.9500000,0.9500000,0.9500000,-0.0251823,-0.0035105,-0.4674645,-0.0251823,-0.0272769,-0.0535278
0.9525000,0.9525000,0.9525000,-0.0247765,-0.0034844,-0.4636897,-0.0247765,-0.0268957,-0.0526192
0.9550000,0.9550000,0.9550000,-0.0243783,-0.0034586,-0.4599557,-0.0243783,-0.0265212,-0.0517280
0.9575000,0.9575000,0.9575000,-0.0239876,-0.0034330,-0.4562619,-0.0239876,-0.0261533,-0.0508538
0.9600000,0.9600000,0.9600000,-0.0236043,-0.0034076,-0.4526079,-0.0236043,-0.0257918,-0.0499964
0.9625000,0.9625000,0.9625000,-0.0232281,-0.0033825,-0.4489931,-0.0232281,-0.0254367,-0.0491552
0.9650000,0.9650000,0.9650000,-0.0228589,-0.0033576,-0.4454169,-0.0228589,-0.0250876,-0.0483300
0.9675000,0.9675000,0.9675000,-0.0224966,-0.0033330,-0.4418789,-0.0224966,-0.0247447,-0.0475204
0.9700000,0.9700000,0.9700000,-0.0221409,-0.0033086,-0.4383785,-0.0221409,-0.0244076,-0.0467262
0.9725000,0.9725000,0.9725000,-0.0217919,-0.0032844,-0.4349153,-0.0217919,-0.0240764,-0.0459469
0.9750000,0.9750000,0.9750000,-0.0214492,-0.0032604,-0.4314886,-0.0214492,-0.0237508,-0.0451822
0.9775000,0.9775000,0.9775000,-0.0211129,-0.0032367,-0.4280982,-0.0211129,-0.0234308,-0.0444319
0.9800000,0.9800000,0.9800000,-0.0207827,-0.0032132,-0.4247433,-0.0207827,-0.0231162,-0.0436956
0.9825000,0.9825000,0.9825000,-0.0204586,-0.0031900,-0.4214237,-0.0204586,-0.0228070,-0.0429730
0.9850000,0.9850000,0.9850000,-0.0201403,-0.0031669,-0.4181388,-0.0201403,-0.0225030,-0.0422639
0.9875000,0.9875000,0.9875000,-0.0198279,-0.0031441,-0.4148882,-0.0198279,-0.0222041,-0.0415680
0.9900000,0.9900000,0.9900000,-0.0195211,-0.0031214,-0.4116715,-0.0195211,-0.0219103,-0.0408850
0.9925000,0.9925000,0.9925000,-0.0192199,-0.0030990,-0.4084881,-0.0192199,-0.0216213,-0.0402145
0.9950000,0.9950000,0.9950000,-0.0189241,-0.0030768,-0.4053376,-0.0189241,-0.0213373,-0.0395565
0.9975000,0.9975000,0.9975000,-0.0186336,-0.0030548,-0.4022197,-0.0186336,-0.0210579,-0.0389105
1.0000000,1.0000000,1.0000000,-0.0183483,-0.0030330,-0.3991339,-0.0183483,-0.0207832,-0.0382764
1.0025000,1.0025000,1.0025000,-0.0180681,-0.0030114,-0.3960798,-0.0180681,-0.0205130,-0.0376539
1.0050000,1.0050000,1.0050000,-0.0177929,-0.0029900,-0.3930570,-0.0177929,-0.0202473,-0.0370427
1.0075000,1.0075000,1.0075000,-0.0175227,-0.0029688,-0.3900650,-0.0175227,-0.0199859,-0.0364427
1.0100000,1.0100000,1.0100000,-0.0172572,-0.0029478,-0.3871035,-0.0172572,-0.0197289,-0.0358536
1.0125000,1.0125000,1.0125000,-0.0169964,-0.0029270,-0.3841721,-0.0169964,-0.0194760,-0.0352752
1.0150000,1.0150000,1.0150000,-0.0167402,-0.0029064,-0.3812705,-0.0167402,-0.0192273,-0.0347072
1.0175000,1.0175000,1.0175000,-0.0164885,-0.0028860,-0.3783981,-0.0164885,-0.0189826,-0.0341495
1.0200000,1.0200000,1.0200000,-0.0162413,-0.0028658,-0.3755547,-0.0162413,-0.0187418,-0.0336018
1.0225000,1.0225000,1.0225000,-0.0159984,-0.0028457,-0.3727399,-0.0159984,-0.0185050,-0.0330640
1.0250000,1.0250000,1.0250000,-0.0157597,-0.0028258,-0.3699534,-0.0157597,-0.0182719,-0.0325357
1.0275000,1.0275000,1.0275000,-0.0155252,-0.0028061,-0.3671947,-0.0155252,-0.0180426,-0.0320170
1.0300000,1.0300000,1.0300000,-0.0152947,-0.0027866,-0.3644635,-0.0152947,-0.0178170,-0.0315075
1.0325000,1.0325000,1.0325000,-0.0150683,-0.0027673,-0.3617596,-0.0150683,-0.0175950,-0.0310070
1.0350000,1.0350000,1.0350000,-0.0148458,-0.0027481,-0.3590824,-0.0148458,-0.0173764,-0.0305154
1.0375000,1.0375000,1.0375000,-0.0146271,-0.0027292,-0.3564318,-0.0146271,-0.0171614,-0.0300326
1.0400000,1.0400000,1.0400000,-0.0144122,-0.0027103,-0.3538074,-0.0144122,-0.0169497,-0.0295583
1.0425000,1.0425000,1.0425000,-0.0142009,-0.0026917,-0.3512088,-0.0142009,-0.0167414,-0.0290923
1.0450000,1.0450000,1.0450000,-0.0139933,-0.0026732,-0.3486357,-0.0139933,-0.0165364,-0.0286345
1.0475000,1.0475000,1.0475000,-0.0137892,-0.0026549,-0.3460879,-0.0137892,-0.0163345,-0.0281848
1.0500000,1.0500000,1.0500000,-0.0135886,-0.0026368,-0.3435650,-0.0135886,-0.0161358,-0.0277430
1.0525000,1.0525000,1.0525000,-0.0133915,-0.0026188,-0.3410667,-0.0133915,-0.0159402,-0.0273088
1.0550000,1.0550000,1.0550000,-0.0131976,-0.0026009,-0.3385927,-0.0131976,-0.0157477,-0.0268823
1.0575000,1.0575000,1.0575000,-0.0130071,-0.0025833,-0.3361427,-0.0130071,-0.0155581,-0.0264631
1.0600000,1.0600000,1.0600000,-0.0128197,-0.0025658,-0.3337164,-0.0128197,-0.0153714,-0.0260513
1.0625000,1.0625000,1.0625000,-0.0126355,-0.0025484,-0.3313135,-0.0126355,-0.0151876,-0.0256465
1.0650000,1.0650000,1.0650000,-0.0124544,-0.0025312,-0.3289338,-0.0124544,-0.0150067,-0.0252488
1.0675000,1.0675000,1.0675000,-0.0122763,-0.0025142,-0.3265770,-0.0122763,-0.0148284,-0.0248579
1.0700000,1.0700000,1.0700000,-0.0121012,-0.0024973,-0.3242427,-0.0121012,-0.0146529,-0.0244738
1.0725000,1.0725000,1.0725000,-0.0119290,-0.0024805,-0.3219308,-0.0119290,-0.0144801,-0.0240962
1.0750000,1.0750000,1.0750000,-0.0117597,-0.0024639,-0.3196409,-0.0117597,-0.0143099,-0.0237251
1.0775000,1.0775000,1.0775000,-0.0115932,-0.0024475,-0.3173728,-0.0115932,-0.0141422,-0.0233604
1.0800000,1.0800000,1.0800000,-0.0114294,-0.0024312,-0.3151262,-0.0114294,-0.0139771,-0.0230019
1.0825000,1.0825000,1.0825000,-0.0112684,-0.0024150,-0.3129009,-0.0112684,-0.0138145,-0.0226494
1.0850000,1.0850000,1.0850000,-0.0111100,-0.0023990,-0.3106966,-0.0111100,-0.0136542,-0.0223030
1.0875000,1.0875000,1.0875000,-0.0109542,-0.0023831,-0.3085131,-0.0109542,-0.0134964,-0.0219624
1.0900000,1.0900000,1.0900000,-0.0108009,-0.0023673,-0.3063501,-0.0108009,-0.0133409,-0.0216276
1.0925000,1.0925000,1.0925000,-0.0106502,-0.0023517,-0.3042074,-0.0106502,-0.0131878,-0.0212985
1.0950000,1.0950000,1.0950000,-0.0105019,-0.0023362,-0.3020847,-0.0105019,-0.0130369,-0.0209749
1.0975000,1.0975000,1.0975000,-0.0103560,-0.0023209,-0.2999819,-0.0103560,-0.0128882,-0.0206567
1.1000000,1.1000000,1.1000000,-0.0102125,-0.0023057,-0.2978986,-0.0102125,-0.0127417,-0.0203438
1.1025000,1.1025000,1.1025000,-0.0100713,-0.0022906,-0.2958347,-0.0100713,-0.0125973,-0.0200362
1.1050000,1.1050000,1.1050000,-0.0099324,-0.0022756,-0.2937899,-0.0099324,-0.0124551,-0.0197338
1.1075000,1.1075000,1.1075000,-0.0097957,-0.0022608,-0.2917639,-0.0097957,-0.0123149,-0.0194363
1.1100000,1.1100000,1.1100000,-0.0096612,-0.0022461,-0.2897567,-0.0096612,-0.0121768,-0.0191439
1.1125000,1.1125000,1.1125000,-0.0095289,-0.0022315,-0.2877679,-0.0095289,-0.0120406,-0.0188562
1.1150000,1.1150000,1.1150000,-0.0093987,-0.0022171,-0.2857974,-0.0093987,-0.0119065,-0.0185734
1.1175000,1.1175000,1.1175000,-0.0092706,-0.0022028,-0.2838450,-0.0092706,-0.0117742,-0.0182952
1.1200000,1.1200000,1.1200000,-0.0091445,-0.0021885,-0.2819103,-0.0091445,-0.0116439,-0.0180216
1.1225000,1.1225000,1.1225000,-0.0090204,-0.0021745,-0.2799933,-0.0090204,-0.0115154,-0.0177525
1.1250000,1.1250000,1.1250000,-0.0088983,-0.0021605,-0.2780938,-0.0088983,-0.0113888,-0.0174878
1.1275000,1.1275000,1.1275000,-0.0087781,-0.0021467,-0.2762114,-0.0087781,-0.0112639,-0.0172275
1.1300000,1.1300000,1.1300000,-0.0086598,-0.0021329,-0.2743461,-0.0086598,-0.0111409,-0.0169714
1.1325000,1.1325000,1.1325000,-0.0085434,-0.0021193,-0.2724976,-0.0085434,-0.0110195,-0.0167195
1.1350000,1.1350000,1.1350000,-0.0084288,-0.0021058,-0.2706658,-0.0084288,-0.0108999,-0.0164717
1.1375000,1.1375000,1.1375000,-0.0083160,-0.0020924,-0.2688505,-0.0083160,-0.0107820,-0.0162280
1.1400000,1.1400000,1.1400000,-0.0082050,-0.0020791,-0.2670514,-0.0082050,-0.0106657,-0.0159882
1.1425000,1.1425000,1.1425000,-0.0080957,-0.0020660,-0.2652684,-0.0080957,-0.0105511,-0.0157522
1.1450000,1.1450000,1.1450000,-0.0079880,-0.0020529,-0.2635014,-0.0079880,-0.0104380,-0.0155201
1.1475000,1.1475000,1.1475000,-0.0078821,-0.0020400,-0.2617501,-0.0078821,-0.0103265,-0.0152918
1.1500000,1.1500000,1.1500000,-0.0077778,-0.0020271,-0.2600143,-0.0077778,-0.0102166,-0.0150671
1.1525000,1.1525000,1.1525000,-0.0076751,-0.0020144,-0.2582939,-0.0076751,-0.0101082,-0.0148460
1.1550000,1.1550000,1.1550000,-0.0075740,-0.0020018,-0.2565888,-0.0075740,-0.0100013,-0.0146285
1.1575000,1.1575000,1.1575000,-0.0074745,-0.0019892,-0.2548986,-0.0074745,-0.0098958,-0.0144144
1.1600000,1.1600000,1.1600000,-0.0073764,-0.0019768,-0.2532234,-0.0073764,-0.0097918,-0.0142038
1.1625000,1.1625000,1.1625000,-0.0072799,-0.0019645,-0.2515629,-0.0072799,-0.0096892,-0.0139966
1.1650000,1.1650000,1.1650000,-0.0071849,-0.0019523,-0.2499169,-0.0071849,-0.0095881,-0.0137926
1.1675000,1.1675000,1.1675000,-0.0070913,-0.0019402,-0.2482854,-0.0070913,-0.0094883,-0.0135919
1.1700000,1.1700000,1.1700000,-0.0069991,-0.0019282,-0.2466681,-0.0069991,-0.0093898,-0.0133943
1.1725000,1.1725000,1.1725000,-0.0069083,-0.0019162,-0.2450648,-0.0069083,-0.0092927,-0.0131999
1.1750000,1.1750000,1.1750000,-0.0068189,-0.0019044,-0.2434755,-0.0068189,-0.0091969,-0.0130086
1.1775000,1.1775000,1.1775000,-0.0067309,-0.0018927,-0.2419000,-0.0067309,-0.0091023,-0.0128202
1.1800000,1.1800000,1.1800000,-0.0066442,-0.0018810,-0.2403381,-0.0066442,-0.0090091,-0.0126349
1.1825000,1.1825000,1.1825000,-0.0065588,-0.0018695,-0.2387896,-0.0065588,-0.0089171,-0.0124524
1.1850000,1.1850000,1.1850000,-0.0064746,-0.0018581,-0.2372545,-0.0064746,-0.0088263,-0.0122728
1.1875000,1.1875000,1.1875000,-0.0063918,-0.0018467,-0.2357326,-0.0063918,-0.0087367,-0.0120960
1.1900000,1.1900000,1.1900000,-0.0063101,-0.0018354,-0.2342238,-0.0063101,-0.0086483,-0.0119220
1.1925000,1.1925000,1.1925000,-0.0062297,-0.0018243,-0.2327278,-0.0062297,-0.0085611,-0.0117507
1.1950000,1.1950000,1.1950000,-0.0061505,-0.0018132,-0.2312446,-0.0061505,-0.0084750,-0.0115821
1.1975000,1.1975000,1.1975000,-0.0060724,-0.0018022,-0.2297741,-0.0060724,-0.0083901,-0.0114160
1.2000000,1.2000000,1.2000000,-0.0059956,-0.0017913,-0.2283160,-0.0059956,-0.0083063,-0.0112526
1.2025000,1.2025000,1.2025000,-0.0059198,-0.0017805,-0.2268703,-0.0059198,-0.0082235,-0.0110917
1.2050000,1.2050000,1.2050000,-0.0058452,-0.0017697,-0.2254369,-0.0058452,-0.0081419,-0.0109333
1.2075000,1.2075000,1.2075000,-0.0057716,-0.0017591,-0.2240155,-0.0057716,-0.0080613,-0.0107773
1.2100000,1.2100000,1.2100000,-0.0056992,-0.0017485,-0.2226062,-0.0056992,-0.0079817,-0.0106237
1.2125000,1.2125000,1.2125000,-0.0056278,-0.0017381,-0.2212086,-0.0056278,-0.0079032,-0.0104724
1.2150000,1.2150000,1.2150000,-0.0055574,-0.0017277,-0.2198228,-0.0055574,-0.0078257,-0.0103235
1.2175000,1.2175000,1.2175000,-0.0054881,-0.0017173,-0.2184486,-0.0054881,-0.0077492,-0.0101769
1.2200000,1.2200000,1.2200000,-0.0054198,-0.0017071,-0.2170859,-0.0054198,-0.0076737,-0.0100325
1.2225000,1.2225000,1.2225000,-0.0053525,-0.0016970,-0.2157346,-0.0053525,-0.0075991,-0.0098903
1.2250000,1.2250000,1.2250000,-0.0052861,-0.0016869,-0.2143944,-0.0052861,-0.0075255,-0.0097503
1.2275000,1.2275000,1.2275000,-0.0052208,-0.0016769,-0.2130654,-0.0052208,-0.0074529,-0.0096124
1.2300000,1.2300000,1.2300000,-0.0051563,-0.0016670,-0.2117475,-0.0051563,-0.0073811,-0.0094766
1.2325000,1.2325000,1.2325000,-0.0050928,-0.0016571,-0.2104404,-0.0050928,-0.0073103,-0.0093429
1.2350000,1.2350000,1.2350000,-0.0050302,-0.0016474,-0.2091440,-0.0050302,-0.0072403,-0.0092112
1.2375000,1.2375000,1.2375000,-0.0049685,-0.0016377,-0.2078584,-0.0049685,-0.0071712,-0.0090815
1.2400000,1.2400000,1.2400000,-0.0049077,-0.0016281,-0.2065833,-0.0049077,-0.0071030,-0.0089537
1.2425000,1.2425000,1.2425000,-0.0048478,-0.0016185,-0.2053187,-0.0048478,-0.0070357,-0.0088278
1.2450000,1.2450000,1.2450000,-0.0047887,-0.0016091,-0.2040644,-0.0047887,-0.0069692,-0.0087039
1.2475000,1.2475000,1.2475000,-0.0047304,-0.0015997,-0.2028203,-0.0047304,-0.0069035,-0.0085818
1.2500000,1.2500000,1.2500000,-0.0046730,-0.0015904,-0.2015864,-0.0046730,-0.0068386,-0.0084615
1.2525000,1.2525000,1.2525000,-0.0046164,-0.0015811,-0.2003625,-0.0046164,-0.0067746,-0.0083430
1.2550000,1.2550000,1.2550000,-0.0045606,-0.0015719,-0.1991486,-0.0045606,-0.0067113,-0.0082263
1.2575000,1.2575000,1.2575000,-0.0045056,-0.0015628,-0.1979444,-0.0045056,-0.0066488,-0.0081114
1.2600000,1.2600000,1.2600000,-0.0044513,-0.0015538,-0.1967500,-0.0044513,-0.0065871,-0.0079981
1.2625000,1.2625000,1.2625000,-0.0043978,-0.0015448,-0.1955653,-0.0043978,-0.0065261,-0.0078865
1.2650000,1.2650000,1.2650000,-0.0043451,-0.0015359,-0.1943900,-0.0043451,-0.0064659,-0.0077766
1.2675000,1.2675000,1.2675000,-0.0042931,-0.0015271,-0.1932242,-0.0042931,-0.0064064,-0.0076683
1.2700000,1.2700000,1.2700000,-0.0042418,-0.0015183,-0.1920677,-0.0042418,-0.0063476,-0.0075616
1.2725000,1.2725000,1.2725000,-0.0041913,-0.0015097,-0.1909205,-0.0041913,-0.0062896,-0.0074565
1.2750000,1.2750000,1.2750000,-0.0041414,-0.0015010,-0.1897824,-0.0041414,-0.0062322,-0.0073529
1.2775000,1.2775000,1.2775000,-0.0040923,-0.0014925,-0.1886534,-0.0040923,-0.0061756,-0.0072509
1.2800000,1.2800000,1.2800000,-0.0040438,-0.0014840,-0.1875334,-0.0040438,-0.0061196,-0.0071503
1.2825000,1.2825000,1.2825000,-0.0039960,-0.0014755,-0.1864222,-0.0039960,-0.0060643,-0.0070512
1.2850000,1.2850000,1.2850000,-0.0039488,-0.0014671,-0.1853199,-0.0039488,-0.0060096,-0.0069536
1.2875000,1.2875000,1.2875000,-0.0039023,-0.0014588,-0.1842262,-0.0039023,-0.0059556,-0.0068574
1.2900000,1.2900000,1.2900000,-0.0038565,-0.0014506,-0.1831412,-0.0038565,-0.0059023,-0.0067626
1.2925000,1.2925000,1.2925000,-0.0038112,-0.0014424,-0.1820647,-0.0038112,-0.0058495,-0.0066692
1.2950000,1.2950000,1.2950000,-0.0037666,-0.0014343,-0.1809967,-0.0037666,-0.0057974,-0.0065771
1.2975000,1.2975000,1.2975000,-0.0037226,-0.0014262,-0.1799370,-0.0037226,-0.0057460,-0.0064864
1.3000000,1.3000000,1.3000000,-0.0036792,-0.0014182,-0.1788856,-0.0036792,-0.0056951,-0.0063969
1.3025000,1.3025000,1.3025000,-0.0036364,-0.0014102,-0.1778424,-0.0036364,-0.0056448,-0.0063088
1.3050000,1.3050000,1.3050000,-0.0035942,-0.0014024,-0.1768074,-0.0035942,-0.0055951,-0.0062220
1.3075000,1.3075000,1.3075000,-0.0035525,-0.0013945,-0.1757804,-0.0035525,-0.0055460,-0.0061364
1.3100000,1.3100000,1.3100000,-0.0035114,-0.0013868,-0.1747613,-0.0035114,-0.0054975,-0.0060520
1.3125000,1.3125000,1.3125000,-0.0034709,-0.0013790,-0.1737502,-0.0034709,-0.0054495,-0.0059689
1.3150000,1.3150000,1.3150000,-0.0034309,-0.0013714,-0.1727468,-0.0034309,-0.0054021,-0.0058869
1.3175000,1.3175000,1.3175000,-0.0033914,-0.0013638,-0.1717512,-0.0033914,-0.0053552,-0.0058061
1.3200000,1.3200000,1.3200000,-0.0033525,-0.0013562,-0.1707633,-0.0033525,-0.0053089,-0.0057265
1.3225000,1.3225000,1.3225000,-0.0033141,-0.0013487,-0.1697830,-0.0033141,-0.0052631,-0.0056480
1.3250000,1.3250000,1.3250000,-0.0032762,-0.0013413,-0.1688101,-0.0032762,-0.0052178,-0.0055707
1.3275000,1.3275000,1.3275000,-0.0032388,-0.0013339,-0.1678448,-0.0032388,-0.0051731,-0.0054944
1.3300000,1.3300000,1.3300000,-0.0032020,-0.0013266,-0.1668868,-0.0032020,-0.0051288,-0.0054192
1.3325000,1.3325000,1.3325000,-0.0031656,-0.0013193,-0.1659361,-0.0031656,-0.0050851,-0.0053451
1.3350000,1.3350000,1.3350000,-0.0031296,-0.0013121,-0.1649926,-0.0031296,-0.0050418,-0.0052721
1.3375000,1.3375000,1.3375000,-0.0030942,-0.0013049,-0.1640563,-0.0030942,-0.0049991,-0.0052000
1.3400000,1.3400000,1.3400000,-0.0030592,-0.0012978,-0.1631271,-0.0030592,-0.0049568,-0.0051290
1.3425000,1.3425000,1.3425000,-0.0030247,-0.0012907,-0.1622049,-0.0030247,-0.0049150,-0.0050590
1.3450000,1.3450000,1.3450000,-0.0029907,-0.0012837,-0.1612897,-0.0029907,-0.0048737,-0.0049900
1.3475000,1.3475000,1.3475000,-0.0029571,-0.0012768,-0.1603813,-0.0029571,-0.0048328,-0.0049220
1.3500000,1.3500000,1.3500000,-0.0029239,-0.0012698,-0.1594799,-0.0029239,-0.0047924,-0.0048549
1.3525000,1.3525000,1.3525000,-0.0028912,-0.0012630,-0.1585851,-0.0028912,-0.0047525,-0.0047887
1.3550000,1.3550000,1.3550000,-0.0028589,-0.0012562,-0.1576971,-0.0028589,-0.0047130,-0.0047235
1.3575000,1.3575000,1.3575000,-0.0028270,-0.0012494,-0.1568157,-0.0028270,-0.0046739,-0.0046592
1.3600000,1.3600000,1.3600000,-0.0027955,-0.0012427,-0.1559409,-0.0027955,-0.0046353,-0.0045958
1.3625000,1.3625000,1.3625000,-0.0027645,-0.0012360,-0.1550726,-0.0027645,-0.0045971,-0.0045333
1.3650000,1.3650000,1.3650000,-0.0027338,-0.0012294,-0.1542108,-0.0027338,-0.0045593,-0.0044716
1.3675000,1.3675000,1.3675000,-0.0027035,-0.0012228,-0.1533554,-0.0027035,-0.0045219,-0.0044109
1.3700000,1.3700000,1.3700000,-0.0026737,-0.0012163,-0.1525063,-0.0026737,-0.0044849,-0.0043509
1.3725000,1.3725000,1.3725000,-0.0026442,-0.0012098,-0.1516635,-0.0026442,-0.0044484,-0.0042918
1.3750000,1.3750000,1.3750000,-0.0026151,-0.0012033,-0.1508269,-0.0026151,-0.0044122,-0.0042335
1.3775000,1.3775000,1.3775000,-0.0025864,-0.0011969,-0.1499964,-0.0025864,-0.0043764,-0.0041760
1.3800000,1.3800000,1.3800000,-0.0025580,-0.0011906,-0.1491721,-0.0025580,-0.0043411,-0.0041193
1.3825000,1.3825000,1.3825000,-0.0025300,-0.0011843,-0.1483538,-0.0025300,-0.0043061,-0.0040634
1.3850000,1.3850000,1.3850000,-0.0025024,-0.0011780,-0.1475415,-0.0025024,-0.0042714,-0.0040083
1.3875000,1.3875000,1.3875000,-0.0024751,-0.0011718,-0.1467352,-0.0024751,-0.0042372,-0.0039539
1.3900000,1.3900000,1.3900000,-0.0024481,-0.0011656,-0.1459347,-0.0024481,-0.0042033,-0.0039003
1.3925000,1.3925000,1.3925000,-0.0024215,-0.0011595,-0.1451401,-0.0024215,-0.0041698,-0.0038474
1.3950000,1.3950000,1.3950000,-0.0023953,-0.0011534,-0.1443512,-0.0023953,-0.0041366,-0.0037952
1.3975000,1.3975000,1.3975000,-0.0023693,-0.0011474,-0.1435681,-0.0023693,-0.0041038,-0.0037438
1.4000000,1.4000000,1.4000000,-0.0023437,-0.0011414,-0.1427906,-0.0023437,-0.0040714,-0.0036930
1.4025000,1.4025000,1.4025000,-0.0023185,-0.0011354,-0.1420188,-0.0023185,-0.0040393,-0.0036430
1.4050000,1.4050000,1.4050000,-0.0022935,-0.0011295,-0.1412525,-0.0022935,-0.0040075,-0.0035936
1.4075000,1.4075000,1.4075000,-0.0022689,-0.0011236,-0.1404918,-0.0022689,-0.0039761,-0.0035449
1.4100000,1.4100000,1.4100000,-0.0022445,-0.0011178,-0.1397365,-0.0022445,-0.0039450,-0.0034969
1.4125000,1.4125000,1.4125000,-0.0022205,-0.0011120,-0.1389866,-0.0022205,-0.0039142,-0.0034495
1.4150000,1.4150000,1.4150000,-0.0021967,-0.0011062,-0.1382422,-0.0021967,-0.0038837,-0.0034028
1.4175000,1.4175000,1.4175000,-0.0021733,-0.0011005,-0.1375030,-0.0021733,-0.0038536,-0.0033567
1.4200000,1.4200000,1.4200000,-0.0021502,-0.0010948,-0.1367691,-0.0021502,-0.0038238,-0.0033112
1.4225000,1.4225000,1.4225000,-0.0021273,-0.0010892,-0.1360405,-0.0021273,-0.0037942,-0.0032663
1.4250000,1.4250000,1.4250000,-0.0021047,-0.0010836,-0.1353170,-0.0021047,-0.0037650,-0.0032220
1.4275000,1.4275000,1.4275000,-0.0020824,-0.0010780,-0.1345987,-0.0020824,-0.0037361,-0.0031784
1.4300000,1.4300000,1.4300000,-0.0020604,-0.0010725,-0.1338854,-0.0020604,-0.0037075,-0.0031353
1.4325000,1.4325000,1.4325000,-0.0020387,-0.0010670,-0.1331772,-0.0020387,-0.0036792,-0.0030928
1.4350000,1.4350000,1.4350000,-0.0020172,-0.0010615,-0.1324740,-0.0020172,-0.0036512,-0.0030509
1.4375000,1.4375000,1.4375000,-0.0019960,-0.0010561,-0.1317758,-0.0019960,-0.0036235,-0.0030095
1.4400000,1.4400000,1.4400000,-0.0019750,-0.0010507,-0.1310825,-0.0019750,-0.0035960,-0.0029687
1.4425000,1.4425000,1.4425000,-0.0019543,-0.0010454,-0.1303940,-0.0019543,-0.0035688,-0.0029285
1.4450000,1.4450000,1.4450000,-0.0019339,-0.0010401,-0.1297104,-0.0019339,-0.0035419,-0.0028887
1.4475000,1.4475000,1.4475000,-0.0019137,-0.0010348,-0.1290315,-0.0019137,-0.0035153,-0.0028496
1.4500000,1.4500000,1.4500000,-0.0018937,-0.0010296,-0.1283574,-0.0018937,-0.0034890,-0.0028109
1.4525000,1.4525000,1.4525000,-0.0018740,-0.0010244,-0.1276880,-0.0018740,-0.0034629,-0.0027727
1.4550000,1.4550000,1.4550000,-0.0018546,-0.0010192,-0.1270233,-0.0018546,-0.0034371,-0.0027351
1.4575000,1.4575000,1.4575000,-0.0018353,-0.0010141,-0.1263632,-0.0018353,-0.0034115,-0.0026979
1.4600000,1.4600000,1.4600000,-0.0018163,-0.0010090,-0.1257077,-0.0018163,-0.0033862,-0.0026613
1.4625000,1.4625000,1.4625000,-0.0017976,-0.0010039,-0.1250567,-0.0017976,-0.0033612,-0.0026251
1.4650000,1.4650000,1.4650000,-0.0017790,-0.0009989,-0.1244102,-0.0017790,-0.0033364,-0.0025894
1.4675000,1.4675000,1.4675000,-0.0017607,-0.0009939,-0.1237681,-0.0017607,-0.0033118,-0.0025542
1.4700000,1.4700000,1.4700000,-0.0017426,-0.0009889,-0.1231305,-0.0017426,-0.0032875,-0.0025195
1.4725000,1.4725000,1.4725000,-0.0017247,-0.0009840,-0.1224973,-0.0017247,-0.0032634,-0.0024852
1.4750000,1.4750000,1.4750000,-0.0017070,-0.0009791,-0.1218684,-0.0017070,-0.0032396,-0.0024514
1.4775000,1.4775000,1.4775000,-0.0016896,-0.0009742,-0.1212438,-0.0016896,-0.0032160,-0.0024180
1.4800000,1.4800000,1.4800000,-0.0016723,-0.0009694,-0.1206235,-0.0016723,-0.0031926,-0.0023850
1.4825000,1.4825000,1.4825000,-0.0016553,-0.0009646,-0.1200075,-0.0016553,-0.0031695,-0.0023525
1.4850000,1.4850000,1.4850000,-0.0016385,-0.0009598,-0.1193956,-0.0016385,-0.0031466,-0.0023204
1.4875000,1.4875000,1.4875000,-0.0016218,-0.0009551,-0.1187879,-0.0016218,-0.0031239,-0.0022887
1.4900000,1.4900000,1.4900000,-0.0016054,-0.0009504,-0.1181843,-0.0016054,-0.0031014,-0.0022575
1.4925000,1.4925000,1.4925000,-0.0015891,-0.0009457,-0.1175849,-0.0015891,-0.0030792,-0.0022267
1.4950000,1.4950000,1.4950000,-0.0015731,-0.0009410,-0.1169894,-0.0015731,-0.0030572,-0.0021962
1.4975000,1.4975000,1.4975000,-0.0015572,-0.0009364,-0.1163981,-0.0015572,-0.0030354,-0.0021662
1.5000000,1.5000000,1.5000000,-0.0015415,-0.0009318,-0.1158107,-0.0015415,-0.0030137,-0.0021365
1.5025000,1.5025000,1.5025000,-0.0015260,-0.0009273,-0.1152272,-0.0015260,-0.0029923,-0.0021072
1.5050000,1.5050000,1.5050000,-0.0015107,-0.0009228,-0.1146477,-0.0015107,-0.0029712,-0.0020784
1.5075000,1.5075000,1.5075000,-0.0014956,-0.0009183,-0.1140721,-0.0014956,-0.0029502,-0.0020499
1.5100000,1.5100000,1.5100000,-0.0014806,-0.0009138,-0.1135003,-0.0014806,-0.0029294,-0.0020217
1.5125000,1.5125000,1.5125000,-0.0014658,-0.0009093,-0.1129323,-0.0014658,-0.0029088,-0.0019939
1.5150000,1.5150000,1.5150000,-0.0014512,-0.0009049,-0.1123682,-0.0014512,-0.0028884,-0.0019665
1.5175000,1.5175000,1.5175000,-0.0014368,-0.0009006,-0.1118078,-0.0014368,-0.0028682,-0.0019395
1.5200000,1.5200000,1.5200000,-0.0014225,-0.0008962,-0.1112511,-0.0014225,-0.0028482,-0.0019128
1.5225000,1.5225000,1.5225000,-0.0014084,-0.0008919,-0.1106982,-0.0014084,-0.0028284,-0.0018864
1.5250000,1.5250000,1.5250000,-0.0013944,-0.0008876,-0.1101489,-0.0013944,-0.0028088,-0.0018604
1.5275000,1.5275000,1.5275000,-0.0013807,-0.0008833,-0.1096032,-0.0013807,-0.0027893,-0.0018347
1.5300000,1.5300000,1.5300000,-0.0013670,-0.0008791,-0.1090612,-0.0013670,-0.0027700,-0.0018093
1.5325000,1.5325000,1.5325000,-0.0013536,-0.0008748,-0.1085227,-0.0013536,-0.0027510,-0.0017843
1.5350000,1.5350000,1.5350000,-0.0013403,-0.0008706,-0.1079878,-0.0013403,-0.0027321,-0.0017596
1.5375000,1.5375000,1.5375000,-0.0013271,-0.0008665,-0.1074564,-0.0013271,-0.0027133,-0.0017352
1.5400000,1.5400000,1.5400000,-0.0013141,-0.0008623,-0.1069284,-0.0013141,-0.0026948,-0.0017111
1.5425000,1.5425000,1.5425000,-0.0013012,-0.0008582,-0.1064040,-0.0013012,-0.0026764,-0.0016874
1.5450000,1.5450000,1.5450000,-0.0012885,-0.0008541,-0.1058830,-0.0012885,-0.0026582,-0.0016639
1.5475000,1.5475000,1.5475000,-0.0012759,-0.0008501,-0.1053654,-0.0012759,-0.0026401,-0.0016408
1.5500000,1.5500000,1.5500000,-0.0012635,-0.0008460,-0.1048511,-0.0012635,-0.0026223,-0.0016179
1.5525000,1.5525000,1.5525000,-0.0012512,-0.0008420,-0.1043402,-0.0012512,-0.0026046,-0.0015953
1.5550000,1.5550000,1.5550000,-0.0012391,-0.0008381,-0.1038327,-0.0012391,-0.0025870,-0.0015730
1.5575000,1.5575000,1.5575000,-0.0012271,-0.0008341,-0.1033284,-0.0012271,-0.0025696,-0.0015510
1.5600000,1.5600000,1.5600000,-0.0012152,-0.0008302,-0.1028274,-0.0012152,-0.0025524,-0.0015293
1.5625000,1.5625000,1.5625000,-0.0012035,-0.0008262,-0.1023296,-0.0012035,-0.0025353,-0.0015079
1.5650000,1.5650000,1.5650000,-0.0011919,-0.0008224,-0.1018351,-0.0011919,-0.0025184,-0.0014867
1.5675000,1.5675000,1.5675000,-0.0011804,-0.0008185,-0.1013437,-0.0011804,-0.0025016,-0.0014658
1.5700000,1.5700000,1.5700000,-0.0011690,-0.0008147,-0.1008556,-0.0011690,-0.0024850,-0.0014452
1.5725000,1.5725000,1.5725000,-0.0011578,-0.0008109,-0.1003705,-0.0011578,-0.0024686,-0.0014248
1.5750000,1.5750000,1.5750000,-0.0011467,-0.0008071,-0.0998886,-0.0011467,-0.0024523,-0.0014047
1.5775000,1.5775000,1.5775000,-0.0011357,-0.0008033,-0.0994097,-0.0011357,-0.0024361,-0.0013848
1.5800000,1.5800000,1.5800000,-0.0011249,-0.0007996,-0.0989339,-0.0011249,-0.0024201,-0.0013652
1.5825000,1.5825000,1.5825000,-0.0011142,-0.0007958,-0.0984612,-0.0011142,-0.0024042,-0.0013458
1.5850000,1.5850000,1.5850000,-0.0011036,-0.0007921,-0.0979914,-0.0011036,-0.0023885,-0.0013267
1.5875000,1.5875000,1.5875000,-0.0010931,-0.0007885,-0.0975247,-0.0010931,-0.0023729,-0.0013078
1.5900000,1.5900000,1.5900000,-0.0010827,-0.0007848,-0.0970609,-0.0010827,-0.0023574,-0.0012892
1.5925000,1.5925000,1.5925000,-0.0010724,-0.0007812,-0.0966001,-0.0010724,-0.0023421,-0.0012708
1.5950000,1.5950000,1.5950000,-0.0010623,-0.0007776,-0.0961422,-0.0010623,-0.0023269,-0.0012526
1.5975000,1.5975000,1.5975000,-0.0010523,-0.0007740,-0.0956872,-0.0010523,-0.0023119,-0.0012347
