# r[nm],d[nm],daligned[nm],U(d)[kj/mol],V(d)[e/nm],Uslab(d)[kJ/mol],UC(d)[kJ/mol],UK(d)[kJ/mol],UCl(d)[kJ/mol]
0.1775000,0.1775000,0.1775000,1715.3613182,-0.1593484,231.5649263,1715.3613182,1080.5806237,inf
0.1800000,0.1800000,0.1800000,1517.4171478,-0.1563832,201.0757465,1517.4171478,954.9525387,inf
0.1825000,0.1825000,0.1825000,1342.9864426,-0.1534552,174.6730457,1342.9864426,844.3019728,inf
0.1850000,0.1850000,0.1850000,1189.1946256,-0.1505593,151.7762297,1189.1946256,746.7926570,inf
0.1875000,0.1875000,0.1875000,1053.5266219,-0.1476900,131.8928674,1053.5266219,660.8188399,inf
0.1900000,0.1900000,0.1900000,933.7811484,-0.1448415,114.6043569,933.7811484,584.9761219,inf
0.1925000,0.1925000,0.1925000,828.0309810,-0.1420092,99.5540989,828.0309810,518.0359424,inf
0.1950000,0.1950000,0.1950000,734.5883859,-0.1391910,86.4377010,734.5883859,458.9232296,inf
0.1975000,0.1975000,0.1975000,651.9749882,-0.1363878,74.9948351,651.9749882,406.6968232,inf
0.2000000,0.2000000,0.2000000,578.8954472,-0.1336034,65.0024474,578.8954472,360.5323501,inf
0.2025000,0.2025000,0.2025000,514.2144118,-0.1308446,56.2690816,514.2144118,319.7072813,inf
0.2050000,0.2050000,0.2050000,456.9363300,-0.1281192,48.6301189,456.9363300,283.5879214,inf
0.2075000,0.2075000,0.2075000,406.1877671,-0.1254355,41.9437788,406.1877671,251.6181035,1733.2296499
0.2100000,0.2100000,0.2100000,361.2019464,-0.1228012,36.0877521,361.2019464,223.3093725,1545.9580342
0.2125000,0.2125000,0.2125000,321.3052602,-0.1202226,30.9563592,321.3052602,198.2324626,1379.6146590
0.2150000,0.2150000,0.2150000,285.9055236,-0.1177043,26.4581478,285.9055236,176.0098921,1231.7739093
0.2175000,0.2175000,0.2175000,254.4817574,-0.1152490,22.5138588,254.4817574,156.3095226,1100.3005811
0.2200000,0.2200000,0.2200000,226.5753050,-0.1128581,19.0546973,226.5753050,138.8389505,983.3141528
0.2225000,0.2225000,0.2225000,201.7821075,-0.1105318,16.0208607,201.7821075,123.3406159,879.1576285
0.2250000,0.2250000,0.2250000,179.7459777,-0.1082691,13.3602784,179.7459777,109.5875328,786.3703265
0.2275000,0.2275000,0.2275000,160.1527393,-0.1060685,11.0275273,160.1527393,97.3795592,703.6640640
0.2300000,0.2300000,0.2300000,142.7251117,-0.1039282,8.9828974,142.7251117,86.5401335,629.9022718
0.2325000,0.2325000,0.2325000,127.2182414,-0.1018461,7.1915884,127.2182414,76.9134195,564.0816462
0.2350000,0.2350000,0.2350000,113.4157927,-0.0998198,5.6230221,113.4157927,68.3618055,505.3160216
0.2375000,0.2375000,0.2375000,101.1265253,-0.0978471,4.2502588,101.1265253,60.7637130,452.8221971
0.2400000,0.2400000,0.2400000,90.1812945,-0.0959258,3.0495008,90.1812945,54.0116760,405.9074934
0.2425000,0.2425000,0.2425000,80.4304216,-0.0940539,1.9996661,80.4304216,48.0106559,363.9588435
0.2450000,0.2450000,0.2450000,71.7413850,-0.0922292,1.0820214,71.7413850,42.6765631,326.4332389
0.2475000,0.2475000,0.2475000,63.9967940,-0.0904501,0.2798747,63.9967940,37.9349594,292.8493678
0.2500000,0.2500000,0.2500000,57.0926083,-0.0887146,-0.4216675,57.0926083,33.7199181,262.7802989
0.2525000,0.2525000,0.2525000,50.9365725,-0.0870211,-1.0358682,50.9365725,29.9730221,235.8470748
0.2550000,0.2550000,0.2550000,45.4468406,-0.0853682,-1.5744566,45.4468406,26.6424837,211.7130989
0.2575000,0.2575000,0.2575000,40.5507645,-0.0837544,-2.0476739,40.5507645,23.6823687,190.0792114
0.2600000,0.2600000,0.2600000,36.1838281,-0.0821784,-2.4643015,36.1838281,21.0519121,170.6793641
0.2625000,0.2625000,0.2625000,32.2887092,-0.0806389,-2.8317103,32.2887092,18.7149116,153.2768179
0.2650000,0.2650000,0.2650000,28.8144513,-0.0791348,-3.1559585,28.8144513,16.6391853,137.6607942
0.2675000,0.2675000,0.2675000,25.7157337,-0.0776649,-3.4419484,25.7157337,14.7960851,123.6435252
0.2700000,0.2700000,0.2700000,22.9522257,-0.0762281,-3.6936264,22.9522257,13.1600561,111.0576511
0.2725000,0.2725000,0.2725000,20.4880122,-0.0748233,-3.9142022,20.4880122,11.7082376,99.7539228
0.2750000,0.2750000,0.2750000,18.2910807,-0.0734490,-4.1063522,18.2910807,10.4201062,89.5991729
0.2775000,0.2775000,0.2775000,16.3328599,-0.0721033,-4.2723892,16.3328599,9.2771614,80.4745207
0.2800000,0.2800000,0.2800000,14.5878015,-0.0707833,-4.4143884,14.5878015,8.2626632,72.2737858
0.2825000,0.2825000,0.2825000,13.0330022,-0.0694846,-4.5342785,13.0330022,7.3614273,64.9020832
0.2850000,0.2850000,0.2850000,11.6478643,-0.0682013,-4.6339099,11.6478643,6.5596839,58.2745789
0.2875000,0.2875000,0.2875000,10.4137964,-0.0669254,-4.7151096,10.4137964,5.8450011,52.3153879
0.2900000,0.2900000,0.2900000,9.3139603,-0.0656480,-4.7797234,9.3139603,5.2062585,46.9565970
0.2925000,0.2925000,0.2925000,8.3330690,-0.0643596,-4.8296416,8.3330690,4.6336507,42.1373975
0.2950000,0.2950000,0.2950000,7.4572415,-0.0630524,-4.8668015,7.4572415,4.1186915,37.8033160
0.2975000,0.2975000,0.2975000,6.6739130,-0.0617215,-4.8931644,6.6739130,3.6541906,33.9055312
0.3000000,0.3000000,0.3000000,5.9717924,-0.0603668,-4.9106719,5.9717924,3.2341844,30.4002652
0.3025000,0.3025000,0.3025000,5.3408502,-0.0589938,-4.9211849,5.3408502,2.8538158,27.2482428
0.3050000,0.3050000,0.3050000,4.7723132,-0.0576129,-4.9264160,4.7723132,2.5091712,24.4142060
0.3075000,0.3075000,0.3075000,4.2586426,-0.0562382,-4.9278593,4.2586426,2.1970946,21.8664794
0.3100000,0.3100000,0.3100000,3.7934786,-0.0548860,-4.9267309,3.7934786,1.9149968,19.5765774
0.3125000,0.3125000,0.3125000,3.3715420,-0.0535719,-4.9239296,3.3715420,1.6606801,17.5188478
0.3150000,0.3150000,0.3150000,2.9884989,-0.0523092,-4.9200288,2.9884989,1.4321879,15.6701495
0.3175000,0.3175000,0.3175000,2.6407991,-0.0511078,-4.9153060,2.6407991,1.2276861,14.0095604
0.3200000,0.3200000,0.3200000,2.3255059,-0.0499731,-4.9098065,2.3255059,1.0453785,12.5181167
0.3225000,0.3225000,0.3225000,2.0401318,-0.0489066,-4.9034292,2.0401318,0.8834517,11.1785850
0.3250000,0.3250000,0.3250000,1.7824937,-0.0479058,-4.8960180,1.7824937,0.7400489,9.9752687
0.3275000,0.3275000,0.3275000,1.5505923,-0.0469653,-4.8874345,1.5505923,0.6132655,8.8938530
0.3300000,0.3300000,0.3300000,1.3425219,-0.0460771,-4.8775979,1.3425219,0.5011648,7.9212886
0.3325000,0.3325000,0.3325000,1.1564068,-0.0452314,-4.8664884,1.1564068,0.4018087,7.0457120
0.3350000,0.3350000,0.3350000,0.9903645,-0.0444171,-4.8541279,0.9903645,0.3133013,6.2563968
0.3375000,0.3375000,0.3375000,0.8424911,-0.0436225,-4.8405583,0.8424911,0.2338426,5.5437245
0.3400000,0.3400000,0.3400000,0.7108648,-0.0428363,-4.8258316,0.7108648,0.1617852,4.8991616
0.3425000,0.3425000,0.3425000,0.5935651,-0.0420481,-4.8100098,0.5935651,0.0956872,4.3152289
0.3450000,0.3450000,0.3450000,0.4887049,-0.0412494,-4.7931661,0.4887049,0.0343516,3.7854525
0.3475000,0.3475000,0.3475000,0.3944713,-0.0404341,-4.7753797,0.3944713,-0.0231550,3.3042901
0.3500000,0.3500000,0.3500000,0.3091734,-0.0395989,-4.7567218,0.3091734,-0.0775076,2.8670339
0.3525000,0.3525000,0.3525000,0.2312882,-0.0387433,-4.7372380,0.2312882,-0.1291516,2.4696943
0.3550000,0.3550000,0.3550000,0.1595002,-0.0378697,-4.7169321,0.1595002,-0.1783479,2.1088753
0.3575000,0.3575000,0.3575000,0.0927252,-0.0369825,-4.6957572,0.0927252,-0.2252268,1.7816484
0.3600000,0.3600000,0.3600000,0.0301170,-0.0360876,-4.6736163,0.0301170,-0.2698426,1.4854371
0.3625000,0.3625000,0.3625000,-0.0289464,-0.0351921,-4.6503723,-0.0289464,-0.3122218,1.2179151
0.3650000,0.3650000,0.3650000,-0.0848928,-0.0343032,-4.6258648,-0.0848928,-0.3524027,0.9769250
0.3675000,0.3675000,0.3675000,-0.1379966,-0.0334278,-4.5999286,-0.1379966,-0.3904615,0.7604153
0.3700000,0.3700000,0.3700000,-0.1884240,-0.0325727,-4.5724095,-0.1884240,-0.4265248,0.5663981
0.3725000,0.3725000,0.3725000,-0.2362771,-0.0317444,-4.5431733,-0.2362771,-0.4607671,0.3929225
0.3750000,0.3750000,0.3750000,-0.2816333,-0.0309498,-4.5121109,-0.2816333,-0.4933940,0.2380640
0.3775000,0.3775000,0.3775000,-0.3245748,-0.0301965,-4.4791392,-0.3245748,-0.5246160,0.0999259
0.3800000,0.3800000,0.3800000,-0.3652091,-0.0294930,-4.4442024,-0.3652091,-0.5546191,-0.0233482
0.3825000,0.3825000,0.3825000,-0.4036759,-0.0288484,-4.4072740,-0.4036759,-0.5835394,-0.1335529
0.3850000,0.3850000,0.3850000,-0.4401426,-0.0282721,-4.3683587,-0.4401426,-0.6114500,-0.2323931
0.3875000,0.3875000,0.3875000,-0.4747896,-0.0277724,-4.3274933,-0.4747896,-0.6383603,-0.3214533
0.3900000,0.3900000,0.3900000,-0.5077900,-0.0273559,-4.2847470,-0.5077900,-0.6642293,-0.4021676
0.3925000,0.3925000,0.3925000,-0.5392895,-0.0270265,-4.2402189,-0.5392895,-0.6889857,-0.4757961
0.3950000,0.3950000,0.3950000,-0.5693925,-0.0267844,-4.1940340,-0.5693925,-0.7125508,-0.5434101
0.3975000,0.3975000,0.3975000,-0.5981584,-0.0266258,-4.1463381,-0.5981584,-0.7348569,-0.6058892
0.4000000,0.4000000,0.4000000,-0.6256081,-0.0265417,-4.0972918,-0.6256081,-0.7558590,-0.6639296
0.4025000,0.4025000,0.4025000,-0.6517383,-0.0265187,-4.0470649,-0.6517383,-0.7755371,-0.7180642
0.4050000,0.4050000,0.4050000,-0.6765385,-0.0265382,-3.9958310,-0.6765385,-0.7938920,-0.7686893
0.4075000,0.4075000,0.4075000,-0.7000066,-0.0265779,-3.9437629,-0.7000066,-0.8109342,-0.8160967
0.4100000,0.4100000,0.4100000,-0.7221579,-0.0266127,-3.8910289,-0.7221579,-0.8266717,-0.8605059
0.4125000,0.4125000,0.4125000,-0.7430266,-0.0266173,-3.8377897,-0.7430266,-0.8410985,-0.9020935
0.4150000,0.4150000,0.4150000,-0.7626598,-0.0265676,-3.7841969,-0.7626598,-0.8541879,-0.9410173
0.4175000,0.4175000,0.4175000,-0.7811069,-0.0264431,-3.7303912,-0.7811069,-0.8658922,-0.9774313
0.4200000,0.4200000,0.4200000,-0.7984056,-0.0262290,-3.6765018,-0.7984056,-0.8761498,-1.0114929
0.4225000,0.4225000,0.4225000,-0.8145707,-0.0259166,-3.6226463,-0.8145707,-0.8848955,-1.0433616
0.4250000,0.4250000,0.4250000,-0.8295875,-0.0255039,-3.5689306,-0.8295875,-0.8920739,-1.0731920
0.4275000,0.4275000,0.4275000,-0.8434119,-0.0249945,-3.5154493,-0.8434119,-0.8976495,-1.1011257
0.4300000,0.4300000,0.4300000,-0.8559778,-0.0243968,-3.4622863,-0.8559778,-0.9016145,-1.1272845
0.4325000,0.4325000,0.4325000,-0.8672083,-0.0237216,-3.4095155,-0.8672083,-0.9039905,-1.1517685
0.4350000,0.4350000,0.4350000,-0.8770297,-0.0229810,-3.3572015,-0.8770297,-0.9048283,-1.1746591
0.4375000,0.4375000,0.4375000,-0.8853832,-0.0221872,-3.3054000,-0.8853832,-0.9042033,-1.1960264
0.4400000,0.4400000,0.4400000,-0.8922331,-0.0213513,-3.2541592,-0.8922331,-0.9022093,-1.2159364
0.4425000,0.4425000,0.4425000,-0.8975711,-0.0204836,-3.2035200,-0.8975711,-0.8989508,-1.2344580
0.4450000,0.4450000,0.4450000,-0.9014159,-0.0195931,-3.1535169,-0.9014159,-0.8945340,-1.2516646
0.4475000,0.4475000,0.4475000,-0.9038110,-0.0186880,-3.1041784,-0.9038110,-0.8890591,-1.2676316
0.4500000,0.4500000,0.4500000,-0.9048186,-0.0177761,-3.0555283,-0.9048186,-0.8826138,-1.2824296
0.4525000,0.4525000,0.4525000,-0.9045127,-0.0168644,-3.0075853,-0.9045127,-0.8752714,-1.2961157
0.4550000,0.4550000,0.4550000,-0.9029711,-0.0159601,-2.9603643,-0.9029711,-0.8670909,-1.3087245
0.4575000,0.4575000,0.4575000,-0.9002684,-0.0150702,-2.9138765,-0.9002684,-0.8581203,-1.3202635
0.4600000,0.4600000,0.4600000,-0.8964714,-0.0142018,-2.8681298,-0.8964714,-0.8484007,-1.3307122
0.4625000,0.4625000,0.4625000,-0.8916368,-0.0133615,-2.8231293,-0.8916368,-0.8379708,-1.3400264
0.4650000,0.4650000,0.4650000,-0.8858118,-0.0125555,-2.7788779,-0.8858118,-0.8268703,-1.3481464
0.4675000,0.4675000,0.4675000,-0.8790372,-0.0117891,-2.7353758,-0.8790372,-0.8151427,-1.3550060
0.4700000,0.4700000,0.4700000,-0.8713503,-0.0110668,-2.6926218,-0.8713503,-0.8028362,-1.3605431
0.4725000,0.4725000,0.4725000,-0.8627890,-0.0103915,-2.6506128,-0.8627890,-0.7900038,-1.3647063
0.4750000,0.4750000,0.4750000,-0.8533944,-0.0097653,-2.6093442,-0.8533944,-0.7767029,-1.3674608
0.4775000,0.4775000,0.4775000,-0.8432126,-0.0091887,-2.5688105,-0.8432126,-0.7629938,-1.3687907
0.4800000,0.4800000,0.4800000,-0.8322960,-0.0086613,-2.5290047,-0.8322960,-0.7489386,-1.3686976
0.4825000,0.4825000,0.4825000,-0.8207024,-0.0081819,-2.4899192,-0.8207024,-0.7345993,-1.3671991
0.4850000,0.4850000,0.4850000,-0.8084947,-0.0077484,-2.4515456,-0.8084947,-0.7200371,-1.3643236
0.4875000,0.4875000,0.4875000,-0.7957390,-0.0073581,-2.4138747,-0.7957390,-0.7053107,-1.3601067
0.4900000,0.4900000,0.4900000,-0.7825040,-0.0070082,-2.3768968,-0.7825040,-0.6904761,-1.3545866
0.4925000,0.4925000,0.4925000,-0.7688584,-0.0066954,-2.3406020,-0.7688584,-0.6755853,-1.3478019
0.4950000,0.4950000,0.4950000,-0.7548705,-0.0064166,-2.3049798,-0.7548705,-0.6606863,-1.3397904
0.4975000,0.4975000,0.4975000,-0.7406063,-0.0061685,-2.2700193,-0.7406063,-0.6458228,-1.3305894
0.5000000,0.5000000,0.5000000,-0.7261290,-0.0059480,-2.2357096,-0.7261290,-0.6310342,-1.3202367
0.5025000,0.5025000,0.5025000,-0.7114979,-0.0057521,-2.2020397,-0.7114979,-0.6163554,-1.3087726
0.5050000,0.5050000,0.5050000,-0.6967685,-0.0055782,-2.1689982,-0.6967685,-0.6018173,-1.2962414
0.5075000,0.5075000,0.5075000,-0.6819915,-0.0054235,-2.1365738,-0.6819915,-0.5874467,-1.2826927
0.5100000,0.5100000,0.5100000,-0.6672131,-0.0052859,-2.1047551,-0.6672131,-0.5732668,-1.2681822
0.5125000,0.5125000,0.5125000,-0.6524751,-0.0051632,-2.0735309,-0.6524751,-0.5592973,-1.2527713
0.5150000,0.5150000,0.5150000,-0.6378147,-0.0050535,-2.0428898,-0.6378147,-0.5455549,-1.2365272
0.5175000,0.5175000,0.5175000,-0.6232648,-0.0049551,-2.0128205,-0.6232648,-0.5320532,-1.2195219
0.5200000,0.5200000,0.5200000,-0.6088543,-0.0048665,-1.9833118,-0.6088543,-0.5188035,-1.2018306
0.5225000,0.5225000,0.5225000,-0.5946083,-0.0047863,-1.9543526,-0.5946083,-0.5058146,-1.1835305
0.5250000,0.5250000,0.5250000,-0.5805485,-0.0047134,-1.9259320,-0.5805485,-0.4930932,-1.1646999
0.5275000,0.5275000,0.5275000,-0.5666932,-0.0046469,-1.8980391,-0.5666932,-0.4806444,-1.1454163
0.5300000,0.5300000,0.5300000,-0.5530579,-0.0045856,-1.8706631,-0.5530579,-0.4684715,-1.1257556
0.5325000,0.5325000,0.5325000,-0.5396555,-0.0045290,-1.8437936,-0.5396555,-0.4565765,-1.1057913
0.5350000,0.5350000,0.5350000,-0.5264964,-0.0044763,-1.8174200,-0.5264964,-0.4449601,-1.0855932
0.5375000,0.5375000,0.5375000,-0.5135891,-0.0044270,-1.7915321,-0.5135891,-0.4336220,-1.0652274
0.5400000,0.5400000,0.5400000,-0.5009398,-0.0043804,-1.7661199,-0.5009398,-0.4225608,-1.0447556
0.5425000,0.5425000,0.5425000,-0.4885535,-0.0043363,-1.7411735,-0.4885535,-0.4117747,-1.0242351
0.5450000,0.5450000,0.5450000,-0.4764333,-0.0042941,-1.7166831,-0.4764333,-0.4012607,-1.0037181
0.5475000,0.5475000,0.5475000,-0.4645813,-0.0042537,-1.6926391,-0.4645813,-0.3910157,-0.9832526
0.5500000,0.5500000,0.5500000,-0.4529983,-0.0042147,-1.6690322,-0.4529983,-0.3810357,-0.9628816
0.5525000,0.5525000,0.5525000,-0.4416841,-0.0041769,-1.6458532,-0.4416841,-0.3713167,-0.9426440
0.5550000,0.5550000,0.5550000,-0.4306377,-0.0041400,-1.6230931,-0.4306377,-0.3618542,-0.9225741
0.5575000,0.5575000,0.5575000,-0.4198575,-0.0041041,-1.6007431,-0.4198575,-0.3526432,-0.9027026
0.5600000,0.5600000,0.5600000,-0.4093408,-0.0040688,-1.5787945,-0.4093408,-0.3436789,-0.8830559
0.5625000,0.5625000,0.5625000,-0.3990849,-0.0040341,-1.5572388,-0.3990849,-0.3349560,-0.8636574
0.5650000,0.5650000,0.5650000,-0.3890863,-0.0039998,-1.5360678,-0.3890863,-0.3264693,-0.8445271
0.5675000,0.5675000,0.5675000,-0.3793412,-0.0039660,-1.5152734,-0.3793412,-0.3182134,-0.8256819
0.5700000,0.5700000,0.5700000,-0.3698454,-0.0039325,-1.4948476,-0.3698454,-0.3101829,-0.8071361
0.5725000,0.5725000,0.5725000,-0.3605947,-0.0038992,-1.4747826,-0.3605947,-0.3023723,-0.7889016
0.5750000,0.5750000,0.5750000,-0.3515844,-0.0038662,-1.4550709,-0.3515844,-0.2947761,-0.7709880
0.5775000,0.5775000,0.5775000,-0.3428097,-0.0038335,-1.4357051,-0.3428097,-0.2873890,-0.7534029
0.5800000,0.5800000,0.5800000,-0.3342657,-0.0038008,-1.4166778,-0.3342657,-0.2802055,-0.7361521
0.5825000,0.5825000,0.5825000,-0.3259475,-0.0037684,-1.3979820,-0.3259475,-0.2732202,-0.7192399
0.5850000,0.5850000,0.5850000,-0.3178499,-0.0037360,-1.3796108,-0.3178499,-0.2664279,-0.7026689
0.5875000,0.5875000,0.5875000,-0.3099680,-0.0037038,-1.3615574,-0.3099680,-0.2598234,-0.6864407
0.5900000,0.5900000,0.5900000,-0.3022966,-0.0036717,-1.3438151,-0.3022966,-0.2534014,-0.6705556
0.5925000,0.5925000,0.5925000,-0.2948305,-0.0036398,-1.3263775,-0.2948305,-0.2471570,-0.6550130
0.5950000,0.5950000,0.5950000,-0.2875647,-0.0036079,-1.3092382,-0.2875647,-0.2410852,-0.6398114
0.5975000,0.5975000,0.5975000,-0.2804942,-0.0035761,-1.2923911,-0.2804942,-0.2351812,-0.6249486
0.6000000,0.6000000,0.6000000,-0.2736139,-0.0035445,-1.2758302,-0.2736139,-0.2294402,-0.6104216
0.6025000,0.6025000,0.6025000,-0.2669189,-0.0035130,-1.2595494,-0.2669189,-0.2238575,-0.5962270
0.6050000,0.6050000,0.6050000,-0.2604044,-0.0034816,-1.2435432,-0.2604044,-0.2184286,-0.5823607
0.6075000,0.6075000,0.6075000,-0.2540654,-0.0034503,-1.2278057,-0.2540654,-0.2131491,-0.5688183
0.6100000,0.6100000,0.6100000,-0.2478974,-0.0034192,-1.2123316,-0.2478974,-0.2080146,-0.5555952
0.6125000,0.6125000,0.6125000,-0.2418957,-0.0033882,-1.1971155,-0.2418957,-0.2030210,-0.5426862
0.6150000,0.6150000,0.6150000,-0.2360557,-0.0033574,-1.1821521,-0.2360557,-0.1981642,-0.5300860
0.6175000,0.6175000,0.6175000,-0.2303729,-0.0033267,-1.1674362,-0.2303729,-0.1934401,-0.5177892
0.6200000,0.6200000,0.6200000,-0.2248431,-0.0032962,-1.1529629,-0.2248431,-0.1888448,-0.5057900
0.6225000,0.6225000,0.6225000,-0.2194620,-0.0032658,-1.1387273,-0.2194620,-0.1843747,-0.4940828
0.6250000,0.6250000,0.6250000,-0.2142253,-0.0032357,-1.1247246,-0.2142253,-0.1800260,-0.4826615
0.6275000,0.6275000,0.6275000,-0.2091292,-0.0032057,-1.1109500,-0.2091292,-0.1757952,-0.4715204
0.6300000,0.6300000,0.6300000,-0.2041695,-0.0031758,-1.0973992,-0.2041695,-0.1716787,-0.4606534
0.6325000,0.6325000,0.6325000,-0.1993425,-0.0031462,-1.0840675,-0.1993425,-0.1676733,-0.4500546
0.6350000,0.6350000,0.6350000,-0.1946443,-0.0031168,-1.0709506,-0.1946443,-0.1637756,-0.4397179
0.6375000,0.6375000,0.6375000,-0.1900714,-0.0030876,-1.0580444,-0.1900714,-0.1599826,-0.4296374
0.6400000,0.6400000,0.6400000,-0.1856201,-0.0030586,-1.0453445,-0.1856201,-0.1562910,-0.4198073
0.6425000,0.6425000,0.6425000,-0.1812871,-0.0030298,-1.0328470,-0.1812871,-0.1526980,-0.4102215
0.6450000,0.6450000,0.6450000,-0.1770688,-0.0030012,-1.0205478,-0.1770688,-0.1492007,-0.4008743
0.6475000,0.6475000,0.6475000,-0.1729621,-0.0029728,-1.0084432,-0.1729621,-0.1457961,-0.3917599
0.6500000,0.6500000,0.6500000,-0.1689637,-0.0029447,-0.9965292,-0.1689637,-0.1424817,-0.3828727
0.6525000,0.6525000,0.6525000,-0.1650706,-0.0029168,-0.9848023,-0.1650706,-0.1392548,-0.3742071
0.6550000,0.6550000,0.6550000,-0.1612797,-0.0028891,-0.9732587,-0.1612797,-0.1361128,-0.3657576
0.6575000,0.6575000,0.6575000,-0.1575881,-0.0028617,-0.9618949,-0.1575881,-0.1330532,-0.3575187
0.6600000,0.6600000,0.6600000,-0.1539930,-0.0028345,-0.9507075,-0.1539930,-0.1300736,-0.3494853
0.6625000,0.6625000,0.6625000,-0.1504916,-0.0028075,-0.9396931,-0.1504916,-0.1271717,-0.3416519
0.6650000,0.6650000,0.6650000,-0.1470813,-0.0027808,-0.9288483,-0.1470813,-0.1243453,-0.3340136
0.6675000,0.6675000,0.6675000,-0.1437594,-0.0027543,-0.9181700,-0.1437594,-0.1215922,-0.3265654
0.6700000,0.6700000,0.6700000,-0.1405235,-0.0027281,-0.9076549,-0.1405235,-0.1189101,-0.3193023
0.6725000,0.6725000,0.6725000,-0.1373710,-0.0027021,-0.8973000,-0.1373710,-0.1162972,-0.3122196
0.6750000,0.6750000,0.6750000,-0.1342996,-0.0026764,-0.8871023,-0.1342996,-0.1137513,-0.3053126
0.6775000,0.6775000,0.6775000,-0.1313071,-0.0026509,-0.8770588,-0.1313071,-0.1112705,-0.2985768
0.6800000,0.6800000,0.6800000,-0.1283911,-0.0026256,-0.8671666,-0.1283911,-0.1088531,-0.2920075
0.6825000,0.6825000,0.6825000,-0.1255494,-0.0026006,-0.8574229,-0.1255494,-0.1064971,-0.2856006
0.6850000,0.6850000,0.6850000,-0.1227801,-0.0025759,-0.8478249,-0.1227801,-0.1042008,-0.2793516
0.6875000,0.6875000,0.6875000,-0.1200810,-0.0025514,-0.8383699,-0.1200810,-0.1019626,-0.2732566
0.6900000,0.6900000,0.6900000,-0.1174502,-0.0025271,-0.8290553,-0.1174502,-0.0997807,-0.2673114
0.6925000,0.6925000,0.6925000,-0.1148857,-0.0025031,-0.8198785,-0.1148857,-0.0976535,-0.2615121
0.6950000,0.6950000,0.6950000,-0.1123858,-0.0024793,-0.8108369,-0.1123858,-0.0955795,-0.2558549
0.6975000,0.6975000,0.6975000,-0.1099485,-0.0024558,-0.8019281,-0.1099485,-0.0935573,-0.2503359
0.7000000,0.7000000,0.7000000,-0.1075721,-0.0024325,-0.7931497,-0.1075721,-0.0915853,-0.2449517
0.7025000,0.7025000,0.7025000,-0.1052549,-0.0024095,-0.7844992,-0.1052549,-0.0896621,-0.2396985
0.7050000,0.7050000,0.7050000,-0.1029953,-0.0023867,-0.7759744,-0.1029953,-0.0877864,-0.2345729
0.7075000,0.7075000,0.7075000,-0.1007917,-0.0023641,-0.7675731,-0.1007917,-0.0859569,-0.2295716
0.7100000,0.7100000,0.7100000,-0.0986425,-0.0023418,-0.7592928,-0.0986425,-0.0841722,-0.2246913
0.7125000,0.7125000,0.7125000,-0.0965463,-0.0023197,-0.7511316,-0.0965463,-0.0824311,-0.2199289
0.7150000,0.7150000,0.7150000,-0.0945015,-0.0022979,-0.7430873,-0.0945015,-0.0807324,-0.2152811
0.7175000,0.7175000,0.7175000,-0.0925067,-0.0022762,-0.7351578,-0.0925067,-0.0790750,-0.2107449
0.7200000,0.7200000,0.7200000,-0.0905606,-0.0022549,-0.7273410,-0.0905606,-0.0774576,-0.2063175
0.7225000,0.7225000,0.7225000,-0.0886618,-0.0022337,-0.7196349,-0.0886618,-0.0758793,-0.2019960
0.7250000,0.7250000,0.7250000,-0.0868091,-0.0022128,-0.7120377,-0.0868091,-0.0743388,-0.1977776
0.7275000,0.7275000,0.7275000,-0.0850011,-0.0021921,-0.7045474,-0.0850011,-0.0728353,-0.1936595
0.7300000,0.7300000,0.7300000,-0.0832367,-0.0021717,-0.6971621,-0.0832367,-0.0713676,-0.1896393
0.7325000,0.7325000,0.7325000,-0.0815147,-0.0021514,-0.6898800,-0.0815147,-0.0699349,-0.1857142
0.7350000,0.7350000,0.7350000,-0.0798340,-0.0021314,-0.6826992,-0.0798340,-0.0685361,-0.1818818
0.7375000,0.7375000,0.7375000,-0.0781933,-0.0021116,-0.6756181,-0.0781933,-0.0671704,-0.1781397
0.7400000,0.7400000,0.7400000,-0.0765918,-0.0020921,-0.6686349,-0.0765918,-0.0658368,-0.1744855
0.7425000,0.7425000,0.7425000,-0.0750282,-0.0020727,-0.6617480,-0.0750282,-0.0645345,-0.1709170
0.7450000,0.7450000,0.7450000,-0.0735016,-0.0020535,-0.6549556,-0.0735016,-0.0632627,-0.1674318
0.7475000,0.7475000,0.7475000,-0.0720109,-0.0020346,-0.6482561,-0.0720109,-0.0620205,-0.1640280
0.7500000,0.7500000,0.7500000,-0.0705554,-0.0020159,-0.6416481,-0.0705554,-0.0608072,-0.1607032
0.7525000,0.7525000,0.7525000,-0.0691339,-0.0019974,-0.6351298,-0.0691339,-0.0596220,-0.1574556
0.7550000,0.7550000,0.7550000,-0.0677456,-0.0019791,-0.6286998,-0.0677456,-0.0584641,-0.1542831
0.7575000,0.7575000,0.7575000,-0.0663897,-0.0019610,-0.6223567,-0.0663897,-0.0573329,-0.1511838
0.7600000,0.7600000,0.7600000,-0.0650653,-0.0019431,-0.6160989,-0.0650653,-0.0562276,-0.1481558
0.7625000,0.7625000,0.7625000,-0.0637715,-0.0019254,-0.6099249,-0.0637715,-0.0551475,-0.1451972
0.7650000,0.7650000,0.7650000,-0.0625075,-0.0019079,-0.6038335,-0.0625075,-0.0540920,-0.1423064
0.7675000,0.7675000,0.7675000,-0.0612726,-0.0018906,-0.5978233,-0.0612726,-0.0530605,-0.1394815
0.7700000,0.7700000,0.7700000,-0.0600660,-0.0018734,-0.5918928,-0.0600660,-0.0520524,-0.1367209
0.7725000,0.7725000,0.7725000,-0.0588870,-0.0018565,-0.5860407,-0.0588870,-0.0510669,-0.1340229
0.7750000,0.7750000,0.7750000,-0.0577349,-0.0018398,-0.5802659,-0.0577349,-0.0501036,-0.1313860
0.7775000,0.7775000,0.7775000,-0.0566089,-0.0018232,-0.5745669,-0.0566089,-0.0491619,-0.1288086
0.7800000,0.7800000,0.7800000,-0.0555085,-0.0018069,-0.5689426,-0.0555085,-0.0482411,-0.1262892
0.7825000,0.7825000,0.7825000,-0.0544329,-0.0017907,-0.5633917,-0.0544329,-0.0473409,-0.1238263
0.7850000,0.7850000,0.7850000,-0.0533814,-0.0017747,-0.5579130,-0.0533814,-0.0464606,-0.1214186
0.7875000,0.7875000,0.7875000,-0.0523536,-0.0017589,-0.5525054,-0.0523536,-0.0455998,-0.1190646
0.7900000,0.7900000,0.7900000,-0.0513488,-0.0017432,-0.5471678,-0.0513488,-0.0447579,-0.1167630
0.7925000,0.7925000,0.7925000,-0.0503663,-0.0017278,-0.5418989,-0.0503663,-0.0439345,-0.1145125
0.7950000,0.7950000,0.7950000,-0.0494058,-0.0017125,-0.5366976,-0.0494058,-0.0431292,-0.1123118
0.7975000,0.7975000,0.7975000,-0.0484665,-0.0016973,-0.5315630,-0.0484665,-0.0423413,-0.1101597
0.8000000,0.8000000,0.8000000,-0.0475479,-0.0016824,-0.5264939,-0.0475479,-0.0415707,-0.1080549
0.8025000,0.8025000,0.8025000,-0.0466496,-0.0016676,-0.5214893,-0.0466496,-0.0408167,-0.1059963
0.8050000,0.8050000,0.8050000,-0.0457710,-0.0016529,-0.5165482,-0.0457710,-0.0400790,-0.1039828
0.8075000,0.8075000,0.8075000,-0.0449117,-0.0016385,-0.5116695,-0.0449117,-0.0393572,-0.1020133
0.8100000,0.8100000,0.8100000,-0.0440711,-0.0016242,-0.5068522,-0.0440711,-0.0386508,-0.1000866
0.8125000,0.8125000,0.8125000,-0.0432488,-0.0016100,-0.5020955,-0.0432488,-0.0379596,-0.0982018
0.8150000,0.8150000,0.8150000,-0.0424443,-0.0015960,-0.4973983,-0.0424443,-0.0372831,-0.0963577
0.8175000,0.8175000,0.8175000,-0.0416573,-0.0015822,-0.4927598,-0.0416573,-0.0366210,-0.0945534
0.8200000,0.8200000,0.8200000,-0.0408872,-0.0015685,-0.4881789,-0.0408872,-0.0359729,-0.0927880
0.8225000,0.8225000,0.8225000,-0.0401336,-0.0015550,-0.4836549,-0.0401336,-0.0353385,-0.0910605
0.8250000,0.8250000,0.8250000,-0.0393962,-0.0015416,-0.4791868,-0.0393962,-0.0347174,-0.0893700
0.8275000,0.8275000,0.8275000,-0.0386746,-0.0015283,-0.4747738,-0.0386746,-0.0341093,-0.0877155
0.8300000,0.8300000,0.8300000,-0.0379684,-0.0015152,-0.4704150,-0.0379684,-0.0335140,-0.0860963
0.8325000,0.8325000,0.8325000,-0.0372771,-0.0015023,-0.4661095,-0.0372771,-0.0329311,-0.0845114
0.8350000,0.8350000,0.8350000,-0.0366005,-0.0014895,-0.4618567,-0.0366005,-0.0323603,-0.0829601
0.8375000,0.8375000,0.8375000,-0.0359382,-0.0014768,-0.4576556,-0.0359382,-0.0318013,-0.0814415
0.8400000,0.8400000,0.8400000,-0.0352899,-0.0014643,-0.4535055,-0.0352899,-0.0312538,-0.0799549
0.8425000,0.8425000,0.8425000,-0.0346551,-0.0014519,-0.4494056,-0.0346551,-0.0307177,-0.0784995
0.8450000,0.8450000,0.8450000,-0.0340336,-0.0014396,-0.4453552,-0.0340336,-0.0301925,-0.0770746
0.8475000,0.8475000,0.8475000,-0.0334251,-0.0014275,-0.4413535,-0.0334251,-0.0296780,-0.0756794
0.8500000,0.8500000,0.8500000,-0.0328293,-0.0014155,-0.4373997,-0.0328293,-0.0291741,-0.0743133
0.8525000,0.8525000,0.8525000,-0.0322458,-0.0014036,-0.4334932,-0.0322458,-0.0286803,-0.0729755
0.8550000,0.8550000,0.8550000,-0.0316744,-0.0013919,-0.4296332,-0.0316744,-0.0281966,-0.0716654
0.8575000,0.8575000,0.8575000,-0.0311148,-0.0013803,-0.4258191,-0.0311148,-0.0277226,-0.0703824
0.8600000,0.8600000,0.8600000,-0.0305666,-0.0013688,-0.4220502,-0.0305666,-0.0272582,-0.0691258
0.8625000,0.8625000,0.8625000,-0.0300298,-0.0013574,-0.4183258,-0.0300298,-0.0268031,-0.0678951
0.8650000,0.8650000,0.8650000,-0.0295039,-0.0013462,-0.4146452,-0.0295039,-0.0263571,-0.0666895
0.8675000,0.8675000,0.8675000,-0.0289887,-0.0013350,-0.4110079,-0.0289887,-0.0259200,-0.0655085
0.8700000,0.8700000,0.8700000,-0.0284840,-0.0013240,-0.4074131,-0.0284840,-0.0254916,-0.0643516
0.8725000,0.8725000,0.8725000,-0.0279895,-0.0013132,-0.4038602,-0.0279895,-0.0250717,-0.0632182
0.8750000,0.8750000,0.8750000,-0.0275050,-0.0013024,-0.4003487,-0.0275050,-0.0246600,-0.0621078
0.8775000,0.8775000,0.8775000,-0.0270303,-0.0012917,-0.3968780,-0.0270303,-0.0242565,-0.0610198
0.8800000,0.8800000,0.8800000,-0.0265651,-0.0012812,-0.3934474,-0.0265651,-0.0238609,-0.0599537
0.8825000,0.8825000,0.8825000,-0.0261093,-0.0012708,-0.3900563,-0.0261093,-0.0234730,-0.0589090
0.8850000,0.8850000,0.8850000,-0.0256625,-0.0012604,-0.3867042,-0.0256625,-0.0230928,-0.0578853
0.8875000,0.8875000,0.8875000,-0.0252247,-0.0012502,-0.3833906,-0.0252247,-0.0227199,-0.0568820
0.8900000,0.8900000,0.8900000,-0.0247955,-0.0012401,-0.3801149,-0.0247955,-0.0223542,-0.0558987
0.8925000,0.8925000,0.8925000,-0.0243749,-0.0012301,-0.3768765,-0.0243749,-0.0219956,-0.0549350
0.8950000,0.8950000,0.8950000,-0.0239626,-0.0012202,-0.3736749,-0.0239626,-0.0216439,-0.0539904
0.8975000,0.8975000,0.8975000,-0.0235583,-0.0012104,-0.3705096,-0.0235583,-0.0212990,-0.0530645
0.9000000,0.9000000,0.9000000,-0.0231621,-0.0012007,-0.3673800,-0.0231621,-0.0209607,-0.0521568
0.9025000,0.9025000,0.9025000,-0.0227736,-0.0011912,-0.3642858,-0.0227736,-0.0206288,-0.0512670
0.9050000,0.9050000,0.9050000,-0.0223927,-0.0011817,-0.3612263,-0.0223927,-0.0203033,-0.0503946
0.9075000,0.9075000,0.9075000,-0.0220192,-0.0011723,-0.3582011,-0.0220192,-0.0199840,-0.0495393
0.9100000,0.9100000,0.9100000,-0.0216529,-0.0011630,-0.3552097,-0.0216529,-0.0196707,-0.0487007
0.9125000,0.9125000,0.9125000,-0.0212938,-0.0011538,-0.3522516,-0.0212938,-0.0193633,-0.0478784
0.9150000,0.9150000,0.9150000,-0.0209416,-0.0011447,-0.3493264,-0.0209416,-0.0190617,-0.0470721
0.9175000,0.9175000,0.9175000,-0.0205962,-0.0011357,-0.3464336,-0.0205962,-0.0187657,-0.0462813
0.9200000,0.9200000,0.9200000,-0.0202574,-0.0011268,-0.3435728,-0.0202574,-0.0184753,-0.0455059
0.9225000,0.9225000,0.9225000,-0.0199251,-0.0011179,-0.3407434,-0.0199251,-0.0181903,-0.0447454
0.9250000,0.9250000,0.9250000,-0.0195991,-0.0011092,-0.3379452,-0.0195991,-0.0179106,-0.0439995
0.9275000,0.9275000,0.9275000,-0.0192794,-0.0011006,-0.3351776,-0.0192794,-0.0176361,-0.0432678
0.9300000,0.9300000,0.9300000,-0.0189658,-0.0010920,-0.3324403,-0.0189658,-0.0173666,-0.0425502
0.9325000,0.9325000,0.9325000,-0.0186581,-0.0010835,-0.3297328,-0.0186581,-0.0171022,-0.0418462
0.9350000,0.9350000,0.9350000,-0.0183562,-0.0010751,-0.3270547,-0.0183562,-0.0168425,-0.0411557
0.9375000,0.9375000,0.9375000,-0.0180600,-0.0010668,-0.3244056,-0.0180600,-0.0165877,-0.0404782
0.9400000,0.9400000,0.9400000,-0.0177693,-0.0010586,-0.3217852,-0.0177693,-0.0163375,-0.0398135
0.9425000,0.9425000,0.9425000,-0.0174841,-0.0010505,-0.3191930,-0.0174841,-0.0160918,-0.0391614
0.9450000,0.9450000,0.9450000,-0.0172043,-0.0010424,-0.3166286,-0.0172043,-0.0158506,-0.0385215
0.9475000,0.9475000,0.9475000,-0.0169297,-0.0010345,-0.3140918,-0.0169297,-0.0156138,-0.0378936
0.9500000,0.9500000,0.9500000,-0.0166601,-0.0010266,-0.3115820,-0.0166601,-0.0153813,-0.0372775
0.9525000,0.9525000,0.9525000,-0.0163956,-0.0010188,-0.3090990,-0.0163956,-0.0151529,-0.0366729
0.9550000,0.9550000,0.9550000,-0.0161360,-0.0010110,-0.3066425,-0.0161360,-0.0149287,-0.0360796
0.9575000,0.9575000,0.9575000,-0.0158811,-0.0010034,-0.3042119,-0.0158811,-0.0147084,-0.0354973
0.9600000,0.9600000,0.9600000,-0.0156310,-0.0009958,-0.3018071,-0.0156310,-0.0144921,-0.0349258
0.9625000,0.9625000,0.9625000,-0.0153854,-0.0009883,-0.2994276,-0.0153854,-0.0142796,-0.0343648
0.9650000,0.9650000,0.9650000,-0.0151444,-0.0009809,-0.2970731,-0.0151444,-0.0140709,-0.0338142
0.9675000,0.9675000,0.9675000,-0.0149077,-0.0009735,-0.2947434,-0.0149077,-0.0138659,-0.0332737
0.9700000,0.9700000,0.9700000,-0.0146754,-0.0009662,-0.2924380,-0.0146754,-0.0136646,-0.0327431
0.9725000,0.9725000,0.9725000,-0.0144472,-0.0009590,-0.2901567,-0.0144472,-0.0134667,-0.0322223
0.9750000,0.9750000,0.9750000,-0.0142232,-0.0009519,-0.2878991,-0.0142232,-0.0132723,-0.0317109
0.9775000,0.9775000,0.9775000,-0.0140033,-0.0009448,-0.2856650,-0.0140033,-0.0130814,-0.0312089
0.9800000,0.9800000,0.9800000,-0.0137873,-0.0009378,-0.2834540,-0.0137873,-0.0128937,-0.0307159
0.9825000,0.9825000,0.9825000,-0.0135752,-0.0009308,-0.2812658,-0.0135752,-0.0127093,-0.0302319
0.9850000,0.9850000,0.9850000,-0.0133669,-0.0009240,-0.2791001,-0.0133669,-0.0125282,-0.0297567
0.9875000,0.9875000,0.9875000,-0.0131623,-0.0009172,-0.2769567,-0.0131623,-0.0123501,-0.0292900
0.9900000,0.9900000,0.9900000,-0.0129614,-0.0009104,-0.2748353,-0.0129614,-0.0121751,-0.0288317
0.9925000,0.9925000,0.9925000,-0.0127640,-0.0009038,-0.2727355,-0.0127640,-0.0120032,-0.0283817
0.9950000,0.9950000,0.9950000,-0.0125701,-0.0008972,-0.2706571,-0.0125701,-0.0118342,-0.0279397
0.9975000,0.9975000,0.9975000,-0.0123797,-0.0008906,-0.2685999,-0.0123797,-0.0116680,-0.0275056
1.0000000,1.0000000,1.0000000,-0.0121927,-0.0008841,-0.2665635,-0.0121927,-0.0115047,-0.0270792
1.0025000,1.0025000,1.0025000,-0.0120089,-0.0008777,-0.2645477,-0.0120089,-0.0113442,-0.0266604
1.0050000,1.0050000,1.0050000,-0.0118284,-0.0008713,-0.2625523,-0.0118284,-0.0111864,-0.0262490
1.0075000,1.0075000,1.0075000,-0.0116510,-0.0008651,-0.2605769,-0.0116510,-0.0110313,-0.0258449
1.0100000,1.0100000,1.0100000,-0.0114767,-0.0008588,-0.2586214,-0.0114767,-0.0108788,-0.0254479
1.0125000,1.0125000,1.0125000,-0.0113055,-0.0008526,-0.2566854,-0.0113055,-0.0107288,-0.0250579
1.0150000,1.0150000,1.0150000,-0.0111372,-0.0008465,-0.2547688,-0.0111372,-0.0105814,-0.0246748
1.0175000,1.0175000,1.0175000,-0.0109719,-0.0008405,-0.2528712,-0.0109719,-0.0104364,-0.0242984
1.0200000,1.0200000,1.0200000,-0.0108094,-0.0008344,-0.2509925,-0.0108094,-0.0102939,-0.0239285
1.0225000,1.0225000,1.0225000,-0.0106497,-0.0008285,-0.2491325,-0.0106497,-0.0101537,-0.0235651
1.0250000,1.0250000,1.0250000,-0.0104928,-0.0008226,-0.2472908,-0.0104928,-0.0100159,-0.0232080
1.0275000,1.0275000,1.0275000,-0.0103386,-0.0008168,-0.2454673,-0.0103386,-0.0098803,-0.0228571
1.0300000,1.0300000,1.0300000,-0.0101870,-0.0008110,-0.2436617,-0.0101870,-0.0097470,-0.0225123
1.0325000,1.0325000,1.0325000,-0.0100380,-0.0008053,-0.2418738,-0.0100380,-0.0096158,-0.0221734
1.0350000,1.0350000,1.0350000,-0.0098915,-0.0007996,-0.2401034,-0.0098915,-0.0094868,-0.0218404
1.0375000,1.0375000,1.0375000,-0.0097475,-0.0007940,-0.2383504,-0.0097475,-0.0093599,-0.0215131
1.0400000,1.0400000,1.0400000,-0.0096060,-0.0007884,-0.2366143,-0.0096060,-0.0092351,-0.0211914
1.0425000,1.0425000,1.0425000,-0.0094669,-0.0007829,-0.2348952,-0.0094669,-0.0091124,-0.0208752
1.0450000,1.0450000,1.0450000,-0.0093301,-0.0007774,-0.2331927,-0.0093301,-0.0089916,-0.0205645
1.0475000,1.0475000,1.0475000,-0.0091956,-0.0007720,-0.2315067,-0.0091956,-0.0088727,-0.0202590
1.0500000,1.0500000,1.0500000,-0.0090634,-0.0007666,-0.2298369,-0.0090634,-0.0087558,-0.0199587
1.0525000,1.0525000,1.0525000,-0.0089334,-0.0007613,-0.2281832,-0.0089334,-0.0086408,-0.0196634
1.0550000,1.0550000,1.0550000,-0.0088056,-0.0007560,-0.2265454,-0.0088056,-0.0085276,-0.0193732
1.0575000,1.0575000,1.0575000,-0.0086799,-0.0007508,-0.2249233,-0.0086799,-0.0084163,-0.0190879
1.0600000,1.0600000,1.0600000,-0.0085563,-0.0007456,-0.2233166,-0.0085563,-0.0083067,-0.0188074
1.0625000,1.0625000,1.0625000,-0.0084347,-0.0007405,-0.2217253,-0.0084347,-0.0081988,-0.0185316
1.0650000,1.0650000,1.0650000,-0.0083152,-0.0007354,-0.2201490,-0.0083152,-0.0080927,-0.0182604
1.0675000,1.0675000,1.0675000,-0.0081976,-0.0007304,-0.2185878,-0.0081976,-0.0079882,-0.0179937
1.0700000,1.0700000,1.0700000,-0.0080820,-0.0007254,-0.2170413,-0.0080820,-0.0078854,-0.0177315
1.0725000,1.0725000,1.0725000,-0.0079682,-0.0007204,-0.2155094,-0.0079682,-0.0077843,-0.0174737
1.0750000,1.0750000,1.0750000,-0.0078564,-0.0007155,-0.2139919,-0.0078564,-0.0076847,-0.0172201
1.0775000,1.0775000,1.0775000,-0.0077464,-0.0007107,-0.2124886,-0.0077464,-0.0075866,-0.0169708
1.0800000,1.0800000,1.0800000,-0.0076381,-0.0007059,-0.2109995,-0.0076381,-0.0074901,-0.0167255
1.0825000,1.0825000,1.0825000,-0.0075316,-0.0007011,-0.2095242,-0.0075316,-0.0073951,-0.0164844
1.0850000,1.0850000,1.0850000,-0.0074269,-0.0006964,-0.2080628,-0.0074269,-0.0073016,-0.0162471
1.0875000,1.0875000,1.0875000,-0.0073239,-0.0006917,-0.2066149,-0.0073239,-0.0072096,-0.0160138
1.0900000,1.0900000,1.0900000,-0.0072225,-0.0006871,-0.2051805,-0.0072225,-0.0071189,-0.0157843
1.0925000,1.0925000,1.0925000,-0.0071227,-0.0006824,-0.2037593,-0.0071227,-0.0070297,-0.0155586
1.0950000,1.0950000,1.0950000,-0.0070246,-0.0006779,-0.2023513,-0.0070246,-0.0069418,-0.0153365
1.0975000,1.0975000,1.0975000,-0.0069280,-0.0006734,-0.2009562,-0.0069280,-0.0068553,-0.0151181
1.1000000,1.1000000,1.1000000,-0.0068330,-0.0006689,-0.1995740,-0.0068330,-0.0067701,-0.0149032
1.1025000,1.1025000,1.1025000,-0.0067395,-0.0006644,-0.1982045,-0.0067395,-0.0066862,-0.0146917
1.1050000,1.1050000,1.1050000,-0.0066475,-0.0006600,-0.1968475,-0.0066475,-0.0066036,-0.0144837
1.1075000,1.1075000,1.1075000,-0.0065570,-0.0006557,-0.1955028,-0.0065570,-0.0065222,-0.0142791
1.1100000,1.1100000,1.1100000,-0.0064679,-0.0006513,-0.1941705,-0.0064679,-0.0064421,-0.0140778
1.1125000,1.1125000,1.1125000,-0.0063802,-0.0006471,-0.1928502,-0.0063802,-0.0063632,-0.0138797
1.1150000,1.1150000,1.1150000,-0.0062939,-0.0006428,-0.1915419,-0.0062939,-0.0062855,-0.0136847
1.1175000,1.1175000,1.1175000,-0.0062089,-0.0006386,-0.1902455,-0.0062089,-0.0062089,-0.0134929
1.1200000,1.1200000,1.1200000,-0.0061253,-0.0006344,-0.1889608,-0.0061253,-0.0061335,-0.0133042
1.1225000,1.1225000,1.1225000,-0.0060430,-0.0006303,-0.1876876,-0.0060430,-0.0060592,-0.0131184
1.1250000,1.1250000,1.1250000,-0.0059620,-0.0006262,-0.1864259,-0.0059620,-0.0059860,-0.0129356
1.1275000,1.1275000,1.1275000,-0.0058823,-0.0006221,-0.1851754,-0.0058823,-0.0059140,-0.0127557
1.1300000,1.1300000,1.1300000,-0.0058038,-0.0006181,-0.1839362,-0.0058038,-0.0058429,-0.0125787
1.1325000,1.1325000,1.1325000,-0.0057265,-0.0006141,-0.1827080,-0.0057265,-0.0057730,-0.0124044
1.1350000,1.1350000,1.1350000,-0.0056504,-0.0006101,-0.1814908,-0.0056504,-0.0057040,-0.0122329
1.1375000,1.1375000,1.1375000,-0.0055756,-0.0006062,-0.1802844,-0.0055756,-0.0056361,-0.0120641
1.1400000,1.1400000,1.1400000,-0.0055018,-0.0006023,-0.1790887,-0.0055018,-0.0055692,-0.0118980
1.1425000,1.1425000,1.1425000,-0.0054292,-0.0005984,-0.1779035,-0.0054292,-0.0055033,-0.0117344
1.1450000,1.1450000,1.1450000,-0.0053577,-0.0005946,-0.1767288,-0.0053577,-0.0054383,-0.0115734
1.1475000,1.1475000,1.1475000,-0.0052873,-0.0005908,-0.1755645,-0.0052873,-0.0053743,-0.0114149
1.1500000,1.1500000,1.1500000,-0.0052180,-0.0005870,-0.1744104,-0.0052180,-0.0053112,-0.0112589
1.1525000,1.1525000,1.1525000,-0.0051498,-0.0005832,-0.1732664,-0.0051498,-0.0052490,-0.0111053
1.1550000,1.1550000,1.1550000,-0.0050826,-0.0005795,-0.1721324,-0.0050826,-0.0051877,-0.0109541
1.1575000,1.1575000,1.1575000,-0.0050164,-0.0005759,-0.1710083,-0.0050164,-0.0051273,-0.0108052
1.1600000,1.1600000,1.1600000,-0.0049512,-0.0005722,-0.1698940,-0.0049512,-0.0050678,-0.0106586
1.1625000,1.1625000,1.1625000,-0.0048870,-0.0005686,-0.1687894,-0.0048870,-0.0050091,-0.0105143
1.1650000,1.1650000,1.1650000,-0.0048238,-0.0005650,-0.1676944,-0.0048238,-0.0049513,-0.0103722
1.1675000,1.1675000,1.1675000,-0.0047615,-0.0005615,-0.1666088,-0.0047615,-0.0048943,-0.0102323
1.1700000,1.1700000,1.1700000,-0.0047001,-0.0005580,-0.1655326,-0.0047001,-0.0048381,-0.0100945
1.1725000,1.1725000,1.1725000,-0.0046397,-0.0005545,-0.1644657,-0.0046397,-0.0047827,-0.0099589
1.1750000,1.1750000,1.1750000,-0.0045802,-0.0005510,-0.1634079,-0.0045802,-0.0047281,-0.0098252
1.1775000,1.1775000,1.1775000,-0.0045216,-0.0005476,-0.1623593,-0.0045216,-0.0046743,-0.0096937
1.1800000,1.1800000,1.1800000,-0.0044639,-0.0005441,-0.1613196,-0.0044639,-0.0046212,-0.0095641
1.1825000,1.1825000,1.1825000,-0.0044070,-0.0005408,-0.1602887,-0.0044070,-0.0045689,-0.0094365
1.1850000,1.1850000,1.1850000,-0.0043509,-0.0005374,-0.1592667,-0.0043509,-0.0045173,-0.0093108
1.1875000,1.1875000,1.1875000,-0.0042957,-0.0005341,-0.1582533,-0.0042957,-0.0044665,-0.0091870
1.1900000,1.1900000,1.1900000,-0.0042413,-0.0005308,-0.1572486,-0.0042413,-0.0044163,-0.0090651
1.1925000,1.1925000,1.1925000,-0.0041877,-0.0005275,-0.1562523,-0.0041877,-0.0043668,-0.0089450
1.1950000,1.1950000,1.1950000,-0.0041349,-0.0005243,-0.1552645,-0.0041349,-0.0043181,-0.0088268
1.1975000,1.1975000,1.1975000,-0.0040829,-0.0005211,-0.1542850,-0.0040829,-0.0042700,-0.0087102
1.2000000,1.2000000,1.2000000,-0.0040316,-0.0005179,-0.1533138,-0.0040316,-0.0042226,-0.0085955
1.2025000,1.2025000,1.2025000,-0.0039811,-0.0005147,-0.1523506,-0.0039811,-0.0041758,-0.0084824
1.2050000,1.2050000,1.2050000,-0.0039314,-0.0005116,-0.1513956,-0.0039314,-0.0041297,-0.0083710
1.2075000,1.2075000,1.2075000,-0.0038823,-0.0005084,-0.1504486,-0.0038823,-0.0040842,-0.0082613
1.2100000,1.2100000,1.2100000,-0.0038340,-0.0005054,-0.1495094,-0.0038340,-0.0040393,-0.0081532
1.2125000,1.2125000,1.2125000,-0.0037863,-0.0005023,-0.1485781,-0.0037863,-0.0039951,-0.0080467
1.2150000,1.2150000,1.2150000,-0.0037394,-0.0004992,-0.1476545,-0.0037394,-0.0039514,-0.0079418
1.2175000,1.2175000,1.2175000,-0.0036931,-0.0004962,-0.1467385,-0.0036931,-0.0039083,-0.0078385
1.2200000,1.2200000,1.2200000,-0.0036475,-0.0004932,-0.1458302,-0.0036475,-0.0038659,-0.0077366
1.2225000,1.2225000,1.2225000,-0.0036026,-0.0004903,-0.1449293,-0.0036026,-0.0038240,-0.0076363
1.2250000,1.2250000,1.2250000,-0.0035583,-0.0004873,-0.1440358,-0.0035583,-0.0037826,-0.0075374
1.2275000,1.2275000,1.2275000,-0.0035146,-0.0004844,-0.1431497,-0.0035146,-0.0037419,-0.0074399
1.2300000,1.2300000,1.2300000,-0.0034716,-0.0004815,-0.1422709,-0.0034716,-0.0037016,-0.0073439
1.2325000,1.2325000,1.2325000,-0.0034292,-0.0004786,-0.1413993,-0.0034292,-0.0036620,-0.0072493
1.2350000,1.2350000,1.2350000,-0.0033874,-0.0004758,-0.1405347,-0.0033874,-0.0036228,-0.0071561
1.2375000,1.2375000,1.2375000,-0.0033461,-0.0004730,-0.1396773,-0.0033461,-0.0035842,-0.0070642
1.2400000,1.2400000,1.2400000,-0.0033055,-0.0004701,-0.1388268,-0.0033055,-0.0035461,-0.0069736
1.2425000,1.2425000,1.2425000,-0.0032654,-0.0004674,-0.1379832,-0.0032654,-0.0035084,-0.0068844
1.2450000,1.2450000,1.2450000,-0.0032259,-0.0004646,-0.1371464,-0.0032259,-0.0034713,-0.0067964
1.2475000,1.2475000,1.2475000,-0.0031870,-0.0004619,-0.1363164,-0.0031870,-0.0034347,-0.0067097
1.2500000,1.2500000,1.2500000,-0.0031486,-0.0004591,-0.1354932,-0.0031486,-0.0033986,-0.0066243
1.2525000,1.2525000,1.2525000,-0.0031108,-0.0004564,-0.1346765,-0.0031108,-0.0033629,-0.0065401
1.2550000,1.2550000,1.2550000,-0.0030734,-0.0004538,-0.1338664,-0.0030734,-0.0033277,-0.0064571
1.2575000,1.2575000,1.2575000,-0.0030366,-0.0004511,-0.1330628,-0.0030366,-0.0032930,-0.0063752
1.2600000,1.2600000,1.2600000,-0.0030003,-0.0004485,-0.1322656,-0.0030003,-0.0032587,-0.0062946
1.2625000,1.2625000,1.2625000,-0.0029646,-0.0004458,-0.1314748,-0.0029646,-0.0032249,-0.0062151
1.2650000,1.2650000,1.2650000,-0.0029293,-0.0004433,-0.1306903,-0.0029293,-0.0031915,-0.0061367
1.2675000,1.2675000,1.2675000,-0.0028945,-0.0004407,-0.1299121,-0.0028945,-0.0031585,-0.0060595
1.2700000,1.2700000,1.2700000,-0.0028602,-0.0004381,-0.1291400,-0.0028602,-0.0031260,-0.0059833
1.2725000,1.2725000,1.2725000,-0.0028263,-0.0004356,-0.1283741,-0.0028263,-0.0030939,-0.0059082
1.2750000,1.2750000,1.2750000,-0.0027930,-0.0004331,-0.1276142,-0.0027930,-0.0030622,-0.0058342
1.2775000,1.2775000,1.2775000,-0.0027601,-0.0004306,-0.1268603,-0.0027601,-0.0030309,-0.0057612
1.2800000,1.2800000,1.2800000,-0.0027276,-0.0004281,-0.1261123,-0.0027276,-0.0030000,-0.0056892
1.2825000,1.2825000,1.2825000,-0.0026956,-0.0004256,-0.1253702,-0.0026956,-0.0029695,-0.0056183
1.2850000,1.2850000,1.2850000,-0.0026640,-0.0004232,-0.1246340,-0.0026640,-0.0029394,-0.0055483
1.2875000,1.2875000,1.2875000,-0.0026329,-0.0004208,-0.1239035,-0.0026329,-0.0029097,-0.0054793
1.2900000,1.2900000,1.2900000,-0.0026021,-0.0004184,-0.1231787,-0.0026021,-0.0028803,-0.0054113
1.2925000,1.2925000,1.2925000,-0.0025718,-0.0004160,-0.1224596,-0.0025718,-0.0028513,-0.0053443
1.2950000,1.2950000,1.2950000,-0.0025419,-0.0004136,-0.1217460,-0.0025419,-0.0028227,-0.0052781
1.2975000,1.2975000,1.2975000,-0.0025125,-0.0004113,-0.1210380,-0.0025125,-0.0027945,-0.0052129
1.3000000,1.3000000,1.3000000,-0.0024834,-0.0004089,-0.1203355,-0.0024834,-0.0027666,-0.0051486
1.3025000,1.3025000,1.3025000,-0.0024547,-0.0004066,-0.1196385,-0.0024547,-0.0027391,-0.0050852
1.3050000,1.3050000,1.3050000,-0.0024264,-0.0004043,-0.1189468,-0.0024264,-0.0027119,-0.0050227
1.3075000,1.3075000,1.3075000,-0.0023984,-0.0004020,-0.1182604,-0.0023984,-0.0026850,-0.0049610
1.3100000,1.3100000,1.3100000,-0.0023709,-0.0003998,-0.1175794,-0.0023709,-0.0026585,-0.0049001
1.3125000,1.3125000,1.3125000,-0.0023437,-0.0003975,-0.1169035,-0.0023437,-0.0026323,-0.0048402
1.3150000,1.3150000,1.3150000,-0.0023169,-0.0003953,-0.1162329,-0.0023169,-0.0026064,-0.0047810
1.3175000,1.3175000,1.3175000,-0.0022904,-0.0003931,-0.1155674,-0.0022904,-0.0025809,-0.0047226
1.3200000,1.3200000,1.3200000,-0.0022643,-0.0003909,-0.1149069,-0.0022643,-0.0025557,-0.0046651
1.3225000,1.3225000,1.3225000,-0.0022385,-0.0003887,-0.1142515,-0.0022385,-0.0025308,-0.0046083
1.3250000,1.3250000,1.3250000,-0.0022131,-0.0003865,-0.1136011,-0.0022131,-0.0025062,-0.0045523
1.3275000,1.3275000,1.3275000,-0.0021880,-0.0003844,-0.1129556,-0.0021880,-0.0024818,-0.0044970
1.3300000,1.3300000,1.3300000,-0.0021633,-0.0003823,-0.1123150,-0.0021633,-0.0024578,-0.0044425
1.3325000,1.3325000,1.3325000,-0.0021388,-0.0003801,-0.1116792,-0.0021388,-0.0024341,-0.0043888
1.3350000,1.3350000,1.3350000,-0.0021147,-0.0003780,-0.1110482,-0.0021147,-0.0024107,-0.0043358
1.3375000,1.3375000,1.3375000,-0.0020909,-0.0003760,-0.1104220,-0.0020909,-0.0023875,-0.0042834
1.3400000,1.3400000,1.3400000,-0.0020675,-0.0003739,-0.1098005,-0.0020675,-0.0023647,-0.0042318
1.3425000,1.3425000,1.3425000,-0.0020443,-0.0003718,-0.1091837,-0.0020443,-0.0023421,-0.0041809
1.3450000,1.3450000,1.3450000,-0.0020214,-0.0003698,-0.1085715,-0.0020214,-0.0023198,-0.0041307
1.3475000,1.3475000,1.3475000,-0.0019989,-0.0003678,-0.1079638,-0.0019989,-0.0022977,-0.0040811
1.3500000,1.3500000,1.3500000,-0.0019766,-0.0003658,-0.1073607,-0.0019766,-0.0022760,-0.0040322
1.3525000,1.3525000,1.3525000,-0.0019546,-0.0003638,-0.1067621,-0.0019546,-0.0022544,-0.0039840
1.3550000,1.3550000,1.3550000,-0.0019329,-0.0003618,-0.1061680,-0.0019329,-0.0022332,-0.0039364
1.3575000,1.3575000,1.3575000,-0.0019115,-0.0003598,-0.1055782,-0.0019115,-0.0022122,-0.0038895
1.3600000,1.3600000,1.3600000,-0.0018903,-0.0003579,-0.1049928,-0.0018903,-0.0021914,-0.0038431
1.3625000,1.3625000,1.3625000,-0.0018695,-0.0003559,-0.1044118,-0.0018695,-0.0021709,-0.0037974
1.3650000,1.3650000,1.3650000,-0.0018489,-0.0003540,-0.1038350,-0.0018489,-0.0021507,-0.0037523
1.3675000,1.3675000,1.3675000,-0.0018285,-0.0003521,-0.1032625,-0.0018285,-0.0021306,-0.0037078
1.3700000,1.3700000,1.3700000,-0.0018084,-0.0003502,-0.1026941,-0.0018084,-0.0021108,-0.0036638
1.3725000,1.3725000,1.3725000,-0.0017886,-0.0003483,-0.1021300,-0.0017886,-0.0020913,-0.0036205
1.3750000,1.3750000,1.3750000,-0.0017691,-0.0003464,-0.1015700,-0.0017691,-0.0020720,-0.0035777
1.3775000,1.3775000,1.3775000,-0.0017497,-0.0003446,-0.1010141,-0.0017497,-0.0020529,-0.0035355
1.3800000,1.3800000,1.3800000,-0.0017307,-0.0003427,-0.1004622,-0.0017307,-0.0020340,-0.0034938
1.3825000,1.3825000,1.3825000,-0.0017118,-0.0003409,-0.0999143,-0.0017118,-0.0020153,-0.0034527
1.3850000,1.3850000,1.3850000,-0.0016933,-0.0003391,-0.0993705,-0.0016933,-0.0019969,-0.0034121
1.3875000,1.3875000,1.3875000,-0.0016749,-0.0003373,-0.0988306,-0.0016749,-0.0019787,-0.0033721
1.3900000,1.3900000,1.3900000,-0.0016568,-0.0003355,-0.0982946,-0.0016568,-0.0019607,-0.0033326
1.3925000,1.3925000,1.3925000,-0.0016389,-0.0003337,-0.0977624,-0.0016389,-0.0019429,-0.0032936
1.3950000,1.3950000,1.3950000,-0.0016212,-0.0003319,-0.0972342,-0.0016212,-0.0019253,-0.0032551
1.3975000,1.3975000,1.3975000,-0.0016038,-0.0003302,-0.0967097,-0.0016038,-0.0019079,-0.0032171
1.4000000,1.4000000,1.4000000,-0.0015865,-0.0003284,-0.0961890,-0.0015865,-0.0018907,-0.0031795
1.4025000,1.4025000,1.4025000,-0.0015695,-0.0003267,-0.0956720,-0.0015695,-0.0018737,-0.0031425
1.4050000,1.4050000,1.4050000,-0.0015527,-0.0003250,-0.0951587,-0.0015527,-0.0018569,-0.0031060
1.4075000,1.4075000,1.4075000,-0.0015361,-0.0003233,-0.0946491,-0.0015361,-0.0018403,-0.0030699
1.4100000,1.4100000,1.4100000,-0.0015198,-0.0003216,-0.0941432,-0.0015198,-0.0018239,-0.0030343
1.4125000,1.4125000,1.4125000,-0.0015036,-0.0003199,-0.0936408,-0.0015036,-0.0018076,-0.0029991
1.4150000,1.4150000,1.4150000,-0.0014876,-0.0003182,-0.0931420,-0.0014876,-0.0017916,-0.0029644
1.4175000,1.4175000,1.4175000,-0.0014718,-0.0003166,-0.0926468,-0.0014718,-0.0017757,-0.0029302
1.4200000,1.4200000,1.4200000,-0.0014562,-0.0003149,-0.0921551,-0.0014562,-0.0017600,-0.0028963
1.4225000,1.4225000,1.4225000,-0.0014408,-0.0003133,-0.0916668,-0.0014408,-0.0017445,-0.0028629
1.4250000,1.4250000,1.4250000,-0.0014256,-0.0003117,-0.0911820,-0.0014256,-0.0017292,-0.0028300
1.4275000,1.4275000,1.4275000,-0.0014106,-0.0003100,-0.0907006,-0.0014106,-0.0017140,-0.0027974
1.4300000,1.4300000,1.4300000,-0.0013958,-0.0003084,-0.0902227,-0.0013958,-0.0016990,-0.0027653
1.4325000,1.4325000,1.4325000,-0.0013811,-0.0003068,-0.0897480,-0.0013811,-0.0016842,-0.0027336
1.4350000,1.4350000,1.4350000,-0.0013667,-0.0003053,-0.0892767,-0.0013667,-0.0016695,-0.0027023
1.4375000,1.4375000,1.4375000,-0.0013524,-0.0003037,-0.0888087,-0.0013524,-0.0016551,-0.0026713
1.4400000,1.4400000,1.4400000,-0.0013383,-0.0003021,-0.0883440,-0.0013383,-0.0016407,-0.0026408
1.4425000,1.4425000,1.4425000,-0.0013243,-0.0003006,-0.0878825,-0.0013243,-0.0016265,-0.0026106
1.4450000,1.4450000,1.4450000,-0.0013105,-0.0002991,-0.0874242,-0.0013105,-0.0016125,-0.0025809
1.4475000,1.4475000,1.4475000,-0.0012969,-0.0002975,-0.0869691,-0.0012969,-0.0015987,-0.0025515
1.4500000,1.4500000,1.4500000,-0.0012835,-0.0002960,-0.0865172,-0.0012835,-0.0015849,-0.0025225
1.4525000,1.4525000,1.4525000,-0.0012702,-0.0002945,-0.0860684,-0.0012702,-0.0015714,-0.0024938
1.4550000,1.4550000,1.4550000,-0.0012571,-0.0002930,-0.0856227,-0.0012571,-0.0015580,-0.0024655
1.4575000,1.4575000,1.4575000,-0.0012441,-0.0002915,-0.0851800,-0.0012441,-0.0015447,-0.0024375
1.4600000,1.4600000,1.4600000,-0.0012313,-0.0002900,-0.0847405,-0.0012313,-0.0015316,-0.0024099
1.4625000,1.4625000,1.4625000,-0.0012186,-0.0002886,-0.0843039,-0.0012186,-0.0015186,-0.0023827
1.4650000,1.4650000,1.4650000,-0.0012061,-0.0002871,-0.0838704,-0.0012061,-0.0015058,-0.0023558
1.4675000,1.4675000,1.4675000,-0.0011938,-0.0002857,-0.0834398,-0.0011938,-0.0014931,-0.0023292
1.4700000,1.4700000,1.4700000,-0.0011816,-0.0002842,-0.0830122,-0.0011816,-0.0014805,-0.0023029
1.4725000,1.4725000,1.4725000,-0.0011695,-0.0002828,-0.0825874,-0.0011695,-0.0014681,-0.0022770
1.4750000,1.4750000,1.4750000,-0.0011576,-0.0002814,-0.0821656,-0.0011576,-0.0014558,-0.0022514
1.4775000,1.4775000,1.4775000,-0.0011458,-0.0002800,-0.0817467,-0.0011458,-0.0014436,-0.0022261
1.4800000,1.4800000,1.4800000,-0.0011342,-0.0002786,-0.0813306,-0.0011342,-0.0014316,-0.0022011
1.4825000,1.4825000,1.4825000,-0.0011227,-0.0002772,-0.0809173,-0.0011227,-0.0014197,-0.0021764
1.4850000,1.4850000,1.4850000,-0.0011113,-0.0002758,-0.0805069,-0.0011113,-0.0014079,-0.0021521
1.4875000,1.4875000,1.4875000,-0.0011001,-0.0002744,-0.0800992,-0.0011001,-0.0013963,-0.0021280
1.4900000,1.4900000,1.4900000,-0.0010890,-0.0002731,-0.0796942,-0.0010890,-0.0013848,-0.0021042
1.4925000,1.4925000,1.4925000,-0.0010780,-0.0002717,-0.0792920,-0.0010780,-0.0013734,-0.0020807
1.4950000,1.4950000,1.4950000,-0.0010672,-0.0002704,-0.0788925,-0.0010672,-0.0013621,-0.0020575
1.4975000,1.4975000,1.4975000,-0.0010565,-0.0002690,-0.0784957,-0.0010565,-0.0013509,-0.0020346
1.5000000,1.5000000,1.5000000,-0.0010459,-0.0002677,-0.0781015,-0.0010459,-0.0013399,-0.0020120
1.5025000,1.5025000,1.5025000,-0.0010354,-0.0002664,-0.0777100,-0.0010354,-0.0013290,-0.0019896
1.5050000,1.5050000,1.5050000,-0.0010251,-0.0002651,-0.0773211,-0.0010251,-0.0013182,-0.0019675
1.5075000,1.5075000,1.5075000,-0.0010149,-0.0002638,-0.0769348,-0.0010149,-0.0013075,-0.0019457
1.5100000,1.5100000,1.5100000,-0.0010048,-0.0002625,-0.0765510,-0.0010048,-0.0012969,-0.0019241
1.5125000,1.5125000,1.5125000,-0.0009948,-0.0002612,-0.0761698,-0.0009948,-0.0012864,-0.0019028
1.5150000,1.5150000,1.5150000,-0.0009849,-0.0002599,-0.0757912,-0.0009849,-0.0012760,-0.0018818
1.5175000,1.5175000,1.5175000,-0.0009751,-0.0002586,-0.0754150,-0.0009751,-0.0012658,-0.0018610
1.5200000,1.5200000,1.5200000,-0.0009655,-0.0002574,-0.0750413,-0.0009655,-0.0012556,-0.0018405
1.5225000,1.5225000,1.5225000,-0.0009560,-0.0002561,-0.0746702,-0.0009560,-0.0012456,-0.0018202
1.5250000,1.5250000,1.5250000,-0.0009466,-0.0002549,-0.0743014,-0.0009466,-0.0012356,-0.0018002
1.5275000,1.5275000,1.5275000,-0.0009372,-0.0002537,-0.0739351,-0.0009372,-0.0012258,-0.0017804
1.5300000,1.5300000,1.5300000,-0.0009280,-0.0002524,-0.0735712,-0.0009280,-0.0012161,-0.0017608
1.5325000,1.5325000,1.5325000,-0.0009189,-0.0002512,-0.0732097,-0.0009189,-0.0012064,-0.0017415
1.5350000,1.5350000,1.5350000,-0.0009099,-0.0002500,-0.0728505,-0.0009099,-0.0011969,-0.0017224
1.5375000,1.5375000,1.5375000,-0.0009011,-0.0002488,-0.0724937,-0.0009011,-0.0011874,-0.0017035
1.5400000,1.5400000,1.5400000,-0.0008923,-0.0002476,-0.0721392,-0.0008923,-0.0011781,-0.0016848
1.5425000,1.5425000,1.5425000,-0.0008836,-0.0002464,-0.0717870,-0.0008836,-0.0011689,-0.0016664
1.5450000,1.5450000,1.5450000,-0.0008750,-0.0002452,-0.0714372,-0.0008750,-0.0011597,-0.0016482
1.5475000,1.5475000,1.5475000,-0.0008665,-0.0002440,-0.0710896,-0.0008665,-0.0011506,-0.0016302
1.5500000,1.5500000,1.5500000,-0.0008581,-0.0002429,-0.0707442,-0.0008581,-0.0011417,-0.0016124
1.5525000,1.5525000,1.5525000,-0.0008498,-0.0002417,-0.0704011,-0.0008498,-0.0011328,-0.0015949
1.5550000,1.5550000,1.5550000,-0.0008416,-0.0002406,-0.0700602,-0.0008416,-0.0011240,-0.0015775
1.5575000,1.5575000,1.5575000,-0.0008334,-0.0002394,-0.0697215,-0.0008334,-0.0011153,-0.0015603
1.5600000,1.5600000,1.5600000,-0.0008254,-0.0002383,-0.0693850,-0.0008254,-0.0011067,-0.0015434
1.5625000,1.5625000,1.5625000,-0.0008175,-0.0002372,-0.0690507,-0.0008175,-0.0010982,-0.0015266
1.5650000,1.5650000,1.5650000,-0.0008096,-0.0002360,-0.0687185,-0.0008096,-0.0010897,-0.0015101
1.5675000,1.5675000,1.5675000,-0.0008019,-0.0002349,-0.0683884,-0.0008019,-0.0010814,-0.0014937
1.5700000,1.5700000,1.5700000,-0.0007942,-0.0002338,-0.0680605,-0.0007942,-0.0010731,-0.0014775
1.5725000,1.5725000,1.5725000,-0.0007866,-0.0002327,-0.0677346,-0.0007866,-0.0010649,-0.0014615
1.5750000,1.5750000,1.5750000,-0.0007791,-0.0002316,-0.0674108,-0.0007791,-0.0010568,-0.0014457
1.5775000,1.5775000,1.5775000,-0.0007717,-0.0002305,-0.0670891,-0.0007717,-0.0010487,-0.0014301
1.5800000,1.5800000,1.5800000,-0.0007644,-0.0002294,-0.0667694,-0.0007644,-0.0010408,-0.0014147
1.5825000,1.5825000,1.5825000,-0.0007571,-0.0002284,-0.0664518,-0.0007571,-0.0010329,-0.0013995
1.5850000,1.5850000,1.5850000,-0.0007499,-0.0002273,-0.0661362,-0.0007499,-0.0010251,-0.0013844
1.5875000,1.5875000,1.5875000,-0.0007428,-0.0002262,-0.0658226,-0.0007428,-0.0010174,-0.0013695
1.5900000,1.5900000,1.5900000,-0.0007358,-0.0002252,-0.0655109,-0.0007358,-0.0010098,-0.0013548
1.5925000,1.5925000,1.5925000,-0.0007289,-0.0002241,-0.0652012,-0.0007289,-0.0010022,-0.0013402
1.5950000,1.5950000,1.5950000,-0.0007220,-0.0002231,-0.0648935,-0.0007220,-0.0009947,-0.0013258
1.5975000,1.5975000,1.5975000,-0.0007152,-0.0002221,-0.0645877,-0.0007152,-0.0009873,-0.0013116
