# r[nm],d[nm],daligned[nm],U(d)[kj/mol],V(d)[e/nm],Uslab(d)[kJ/mol],UC(d)[kJ/mol],UK(d)[kJ/mol],UCl(d)[kJ/mol]
0.1750000,0.1750000,0.1750000,1836.7611096,-0.3411457,268.0600807,1836.7611096,1157.0911699,inf
0.1775000,0.1775000,0.1775000,1625.7139501,-0.3337604,232.6191155,1625.7139501,1023.1169819,inf
0.1800000,0.1800000,0.1800000,1439.5846829,-0.3265692,201.9762465,1439.5846829,905.0162184,inf
0.1825000,0.1825000,0.1825000,1275.3508448,-0.3195287,175.4415273,1275.3508448,800.8602953,inf
0.1850000,0.1850000,0.1850000,1130.3643859,-0.3126351,152.4311685,1130.3643859,708.9603585,inf
0.1875000,0.1875000,0.1875000,1002.3050562,-0.3058862,132.4500232,1002.3050562,627.8370590,inf
0.1900000,0.1900000,0.1900000,889.1393413,-0.2992805,115.0771877,889.1393413,556.1941064,inf
0.1925000,0.1925000,0.1925000,789.0845129,-0.2928175,99.9541140,789.0845129,492.8951546,inf
0.1950000,0.1950000,0.1950000,700.5771589,-0.2864973,86.7747606,700.5771589,436.9436228,inf
0.1975000,0.1975000,0.1975000,622.2456445,-0.2803201,75.2774023,622.2456445,387.4650957,inf
0.2000000,0.2000000,0.2000000,552.8860336,-0.2742856,65.2378009,552.8860336,343.6919780,inf
0.2025000,0.2025000,0.2025000,491.4410554,-0.2683937,56.4634931,491.4410554,304.9501196,inf
0.2050000,0.2050000,0.2050000,436.9817461,-0.2626432,48.7890028,436.9817461,270.6471529,inf
0.2075000,0.2075000,0.2075000,388.6914350,-0.2570326,42.0718181,388.6914350,240.2623227,1662.2568158
0.2100000,0.2100000,0.2100000,345.8517775,-0.2515599,36.1890036,345.8517775,213.3376101,1483.7297002
0.2125000,0.2125000,0.2125000,307.8305739,-0.2462226,31.0343433,307.8305739,189.4699833,1325.0063785
0.2150000,0.2150000,0.2150000,274.0711390,-0.2410180,26.5159241,274.0711390,168.3046289,1183.8099828
0.2175000,0.2175000,0.2175000,244.0830227,-0.2359430,22.5540896,244.0830227,149.5290342,1058.1343618
0.2200000,0.2200000,0.2200000,217.4339027,-0.2309944,19.0797027,217.4339027,132.8678139,946.2110802
0.2225000,0.2225000,0.2225000,193.7424976,-0.2261690,16.0326655,193.7424976,118.0781832,846.4804902
0.2250000,0.2250000,0.2250000,172.6723684,-0.2214635,13.3606536,172.6723684,104.9459959,757.5663594
0.2275000,0.2275000,0.2275000,153.9264920,-0.2168746,11.0180293,153.9264920,93.2822753,678.2536152
0.2300000,0.2300000,0.2300000,137.2425100,-0.2123992,8.9649061,137.2425100,82.9201750,607.4688299
0.2325000,0.2325000,0.2325000,122.3885644,-0.2080340,7.1663462,122.3885644,73.7123160,544.2631154
0.2350000,0.2350000,0.2350000,109.1596479,-0.2037760,5.5916745,109.1596479,65.5284517,487.7971362
0.2375000,0.2375000,0.2375000,97.3744015,-0.1996223,4.2138963,97.3744015,58.2534204,437.3279822
0.2400000,0.2400000,0.2400000,86.8723052,-0.1955698,3.0092018,86.8723052,51.7853486,392.1976699
0.2425000,0.2425000,0.2425000,77.5112110,-0.1916159,1.9565381,77.5112110,46.0340736,351.8230657
0.2450000,0.2450000,0.2450000,69.1651761,-0.1877577,1.0372348,69.1651761,40.9197589,315.6870521
0.2475000,0.2475000,0.2475000,61.7225592,-0.1839926,0.2346752,61.7225592,36.3716774,283.3307769
0.2500000,0.2500000,0.2500000,55.0843463,-0.1803182,-0.4659804,55.0843463,32.3271420,254.3468482
0.2525000,0.2525000,0.2525000,49.1626780,-0.1767318,-1.0780057,49.1626780,28.7305652,228.3733536
0.2550000,0.2550000,0.2550000,43.8795544,-0.1732312,-1.6132444,43.8795544,25.5326312,205.0886006
0.2575000,0.2575000,0.2575000,39.1656941,-0.1698140,-2.0821747,39.1656941,22.6895675,184.2064876
0.2600000,0.2600000,0.2600000,34.9595292,-0.1664779,-2.4939275,34.9595292,20.1625005,165.4724255
0.2625000,0.2625000,0.2625000,31.2063199,-0.1632208,-2.8562959,31.2063199,17.9168848,148.6597441
0.2650000,0.2650000,0.2650000,27.8573736,-0.1600405,-3.1757761,27.8573736,15.9219924,133.5665212
0.2675000,0.2675000,0.2675000,24.8693550,-0.1569352,-3.4576633,24.8693550,14.1504539,120.0127848
0.2700000,0.2700000,0.2700000,22.2036762,-0.1539030,-3.7062047,22.2036762,12.5778409,107.8380425
0.2725000,0.2725000,0.2725000,19.8259545,-0.1509426,-3.9247903,19.8259545,11.1822864,96.8990974
0.2750000,0.2750000,0.2750000,17.7055279,-0.1480531,-4.1161538,17.7055279,9.9441417,87.0681187
0.2775000,0.2775000,0.2775000,15.8150192,-0.1452350,-4.2825559,15.8150192,8.8456733,78.2309333
0.2800000,0.2800000,0.2800000,14.1299407,-0.1424900,-4.4259376,14.1299407,7.8708077,70.2855150
0.2825000,0.2825000,0.2825000,12.6283339,-0.1398211,-4.5480368,12.6283339,7.0049342,63.1406460
0.2850000,0.2850000,0.2850000,11.2904440,-0.1372324,-4.6504762,11.2904440,6.2347721,56.7147314
0.2875000,0.2875000,0.2875000,10.0984280,-0.1347276,-4.7348262,10.0984280,5.5483048,50.9347474
0.2900000,0.2900000,0.2900000,9.0361053,-0.1323084,-4.8026521,9.0361053,4.9347657,45.7353097
0.2925000,0.2925000,0.2925000,8.0887567,-0.1299732,-4.8555467,8.0887567,4.3846556,41.0578456
0.2950000,0.2950000,0.2950000,7.2429791,-0.1277152,-4.8951512,7.2429791,3.8897593,36.8498595
0.2975000,0.2975000,0.2975000,6.4865999,-0.1255222,-4.9231622,6.4865999,3.4431324,33.0642803
0.3000000,0.3000000,0.3000000,5.8086423,-0.1233774,-4.9413203,5.8086423,3.0390387,29.6588801
0.3025000,0.3025000,0.3025000,5.1993259,-0.1212609,-4.9513784,5.1993259,2.6728330,26.5957573
0.3050000,0.3050000,0.3050000,4.6500778,-0.1191529,-4.9550489,4.6500778,2.3407986,23.8408736
0.3075000,0.3075000,0.3075000,4.1535288,-0.1170358,-4.9539379,4.1535288,2.0399588,21.3636392
0.3100000,0.3100000,0.3100000,3.7034729,-0.1148972,-4.9494748,3.7034729,1.7678843,19.1365386
0.3125000,0.3125000,0.3125000,3.2947815,-0.1127306,-4.9428512,3.2947815,1.5225154,17.1347914
0.3150000,0.3150000,0.3150000,2.9232739,-0.1105364,-4.9349754,2.9232739,1.3020116,15.3360441
0.3175000,0.3175000,0.3175000,2.5855573,-0.1083209,-4.9264519,2.5855573,1.1046364,13.7200889
0.3200000,0.3200000,0.3200000,2.2788540,-0.1060954,-4.9175864,2.2788540,0.9286781,12.2686102
0.3225000,0.3225000,0.3225000,2.0008333,-0.1038746,-4.9084214,2.0008333,0.7724030,10.9649576
0.3250000,0.3250000,0.3250000,1.7494623,-0.1016760,-4.8987950,1.7494623,0.6340373,9.7939514
0.3275000,0.3275000,0.3275000,1.5228850,-0.0995181,-4.8884155,1.5228850,0.5117691,8.7417228
0.3300000,0.3300000,0.3300000,1.3193314,-0.0974200,-4.8769375,1.3193314,0.4037652,7.7955928
0.3325000,0.3325000,0.3325000,1.1370580,-0.0953995,-4.8640310,1.1370580,0.3081992,6.9439924
0.3350000,0.3350000,0.3350000,0.9743133,-0.0934719,-4.8494360,0.9743133,0.2232874,6.1764165
0.3375000,0.3375000,0.3375000,0.8293245,-0.0916479,-4.8329992,0.8293245,0.1473302,5.4834045
0.3400000,0.3400000,0.3400000,0.7002992,-0.0899322,-4.8146881,0.7002992,0.0787552,4.8565322
0.3425000,0.3425000,0.3425000,0.5854398,-0.0883216,-4.7945823,0.5854398,0.0161575,4.2883986
0.3450000,0.3450000,0.3450000,0.4829669,-0.0868052,-4.7728459,0.4829669,-0.0416681,3.7725949
0.3475000,0.3475000,0.3475000,0.3911514,-0.0853645,-4.7496929,0.3911514,-0.0957087,3.3036468
0.3500000,0.3500000,0.3500000,0.3083520,-0.0839754,-4.7253574,0.3083520,-0.1467308,2.8769276
0.3525000,0.3525000,0.3525000,0.2330543,-0.0826111,-4.7000737,0.2330543,-0.1952937,2.4885477
0.3550000,0.3550000,0.3550000,0.1639079,-0.0812461,-4.6740626,0.1639079,-0.2417758,2.1352299
0.3575000,0.3575000,0.3575000,0.0997552,-0.0798598,-4.6475189,0.0997552,-0.2864114,1.8141813
0.3600000,0.3600000,0.3600000,0.0396485,-0.0784401,-4.6205956,0.0396485,-0.3293293,1.5229723
0.3625000,0.3625000,0.3625000,-0.0171474,-0.0769849,-4.5933873,-0.0171474,-0.3705922,1.2594319
0.3650000,0.3650000,0.3650000,-0.0711679,-0.0755028,-4.5659171,-0.0711679,-0.4102286,1.0215619
0.3675000,0.3675000,0.3675000,-0.1227738,-0.0740114,-4.5381350,-0.1227738,-0.4482557,0.8074729
0.3700000,0.3700000,0.3700000,-0.1721862,-0.0725347,-4.5099265,-0.1721862,-0.4846926,0.6153386
0.3725000,0.3725000,0.3725000,-0.2195255,-0.0710992,-4.4811315,-0.2195255,-0.5195636,0.4433668
0.3750000,0.3750000,0.3750000,-0.2648491,-0.0697303,-4.4515667,-0.2648491,-0.5528948,0.2897840
0.3775000,0.3775000,0.3775000,-0.3081832,-0.0684495,-4.4210461,-0.3081832,-0.5847087,0.1528303
0.3800000,0.3800000,0.3800000,-0.3495455,-0.0672720,-4.3893968,-0.3495455,-0.6150185,0.0307642
0.3825000,0.3825000,0.3825000,-0.3889578,-0.0662059,-4.3564681,-0.3889578,-0.6438256,-0.0781240
0.3850000,0.3850000,0.3850000,-0.4264508,-0.0652515,-4.3221364,-0.4264508,-0.6711191,-0.1754920
0.3875000,0.3875000,0.3875000,-0.4620630,-0.0644021,-4.2863076,-0.4620630,-0.6968776,-0.2629189
0.3900000,0.3900000,0.3900000,-0.4958374,-0.0636452,-4.2489180,-0.4958374,-0.7210717,-0.3418761
0.3925000,0.3925000,0.3925000,-0.5278181,-0.0629632,-4.2099357,-0.5278181,-0.7436666,-0.4136975
0.3950000,0.3950000,0.3950000,-0.5580482,-0.0623346,-4.1693612,-0.5580482,-0.7646239,-0.4795542
0.3975000,0.3975000,0.3975000,-0.5865678,-0.0617356,-4.1272266,-0.5865678,-0.7839053,-0.5404366
0.4000000,0.4000000,0.4000000,-0.6134139,-0.0611413,-4.0835944,-0.6134139,-0.8014790,-0.5971471
0.4025000,0.4025000,0.4025000,-0.6386183,-0.0605266,-4.0385535,-0.6386183,-0.8173288,-0.6503053
0.4050000,0.4050000,0.4050000,-0.6622074,-0.0598682,-3.9922154,-0.6622074,-0.8314643,-0.7003643
0.4075000,0.4075000,0.4075000,-0.6842017,-0.0591452,-3.9447088,-0.6842017,-0.8439291,-0.7476366
0.4100000,0.4100000,0.4100000,-0.7046201,-0.0583404,-3.8961742,-0.7046201,-0.8548020,-0.7923254
0.4125000,0.4125000,0.4125000,-0.7234855,-0.0574399,-3.8467592,-0.7234855,-0.8641918,-0.8345567
0.4150000,0.4150000,0.4150000,-0.7408343,-0.0564332,-3.7966133,-0.7408343,-0.8722239,-0.8744082
0.4175000,0.4175000,0.4175000,-0.7567232,-0.0553130,-3.7458850,-0.7567232,-0.8790240,-0.9119331
0.4200000,0.4200000,0.4200000,-0.7712327,-0.0540742,-3.6947175,-0.7712327,-0.8847017,-0.9471768
0.4225000,0.4225000,0.4225000,-0.7844632,-0.0527143,-3.6432476,-0.7844632,-0.8893383,-0.9801878
0.4250000,0.4250000,0.4250000,-0.7965247,-0.0512341,-3.5916034,-0.7965247,-0.8929802,-1.0110233
0.4275000,0.4275000,0.4275000,-0.8075233,-0.0496378,-3.5399032,-0.8075233,-0.8956395,-1.0397513
0.4300000,0.4300000,0.4300000,-0.8175460,-0.0479339,-3.4882555,-0.8175460,-0.8973006,-1.0664503
0.4325000,0.4325000,0.4325000,-0.8266496,-0.0461353,-3.4367585,-0.8266496,-0.8979316,-1.0912070
0.4350000,0.4350000,0.4350000,-0.8348540,-0.0442592,-3.3855001,-0.8348540,-0.8974991,-1.1141129
0.4375000,0.4375000,0.4375000,-0.8421431,-0.0423262,-3.3345587,-0.8421431,-0.8959829,-1.1352608
0.4400000,0.4400000,0.4400000,-0.8484718,-0.0403592,-3.2840033,-0.8484718,-0.8933863,-1.1547409
0.4425000,0.4425000,0.4425000,-0.8537782,-0.0383812,-3.2338943,-0.8537782,-0.8897417,-1.1726403
0.4450000,0.4450000,0.4450000,-0.8579996,-0.0364139,-3.1842841,-0.8579996,-0.8851085,-1.1890430
0.4475000,0.4475000,0.4475000,-0.8610873,-0.0344758,-3.1352177,-0.8610873,-0.8795653,-1.2040335
0.4500000,0.4500000,0.4500000,-0.8630177,-0.0325816,-3.0867333,-0.8630177,-0.8731993,-1.2176995
0.4525000,0.4525000,0.4525000,-0.8637979,-0.0307413,-3.0388633,-0.8637979,-0.8660951,-1.2301340
0.4550000,0.4550000,0.4550000,-0.8634634,-0.0289614,-2.9916344,-0.8634634,-0.8583260,-1.2414338
0.4575000,0.4575000,0.4575000,-0.8620710,-0.0272453,-2.9450684,-0.8620710,-0.8499496,-1.2516944
0.4600000,0.4600000,0.4600000,-0.8596882,-0.0255949,-2.8991830,-0.8596882,-0.8410071,-1.2610021
0.4625000,0.4625000,0.4625000,-0.8563832,-0.0240115,-2.8539917,-0.8563832,-0.8315258,-1.2694242
0.4650000,0.4650000,0.4650000,-0.8522162,-0.0224967,-2.8095047,-0.8522162,-0.8215242,-1.2770016
0.4675000,0.4675000,0.4675000,-0.8472354,-0.0210526,-2.7657291,-0.8472354,-0.8110161,-1.2837431
0.4700000,0.4700000,0.4700000,-0.8414759,-0.0196821,-2.7226695,-0.8414759,-0.8000161,-1.2896266
0.4725000,0.4725000,0.4725000,-0.8349620,-0.0183882,-2.6803279,-0.8349620,-0.7885423,-1.2946034
0.4750000,0.4750000,0.4750000,-0.8277114,-0.0171741,-2.6387045,-0.8277114,-0.7766186,-1.2986086
0.4775000,0.4775000,0.4775000,-0.8197398,-0.0160421,-2.5977974,-0.8197398,-0.7642753,-1.3015731
0.4800000,0.4800000,0.4800000,-0.8110646,-0.0149938,-2.5576035,-0.8110646,-0.7515492,-1.3034347
0.4825000,0.4825000,0.4825000,-0.8017084,-0.0140295,-2.5181181,-0.8017084,-0.7384821,-1.3041472
0.4850000,0.4850000,0.4850000,-0.7917006,-0.0131486,-2.4793355,-0.7917006,-0.7251198,-1.3036852
0.4875000,0.4875000,0.4875000,-0.7810782,-0.0123489,-2.4412488,-0.7810782,-0.7115108,-1.3020434
0.4900000,0.4900000,0.4900000,-0.7698851,-0.0116274,-2.4038506,-0.7698851,-0.6977045,-1.2992338
0.4925000,0.4925000,0.4925000,-0.7581713,-0.0109802,-2.3671324,-0.7581713,-0.6837499,-1.2952795
0.4950000,0.4950000,0.4950000,-0.7459916,-0.0104028,-2.3310854,-0.7459916,-0.6696949,-1.2902091
0.4975000,0.4975000,0.4975000,-0.7334035,-0.0098903,-2.2957001,-0.7334035,-0.6555849,-1.2840520
0.5000000,0.5000000,0.5000000,-0.7204661,-0.0094374,-2.2609667,-0.7204661,-0.6414629,-1.2768353
0.5025000,0.5025000,0.5025000,-0.7072384,-0.0090388,-2.2268751,-0.7072384,-0.6273683,-1.2685833
0.5050000,0.5050000,0.5050000,-0.6937784,-0.0086895,-2.1934149,-0.6937784,-0.6133372,-1.2593181
0.5075000,0.5075000,0.5075000,-0.6801414,-0.0083843,-2.1605754,-0.6801414,-0.5994020,-1.2490619
0.5100000,0.5100000,0.5100000,-0.6663801,-0.0081185,-2.1283459,-0.6663801,-0.5855917,-1.2378389
0.5125000,0.5125000,0.5125000,-0.6525436,-0.0078876,-2.0967157,-0.6525436,-0.5719316,-1.2256780
0.5150000,0.5150000,0.5150000,-0.6386771,-0.0076875,-2.0656737,-0.6386771,-0.5584440,-1.2126137
0.5175000,0.5175000,0.5175000,-0.6248218,-0.0075144,-2.0352090,-0.6248218,-0.5451479,-1.1986881
0.5200000,0.5200000,0.5200000,-0.6110151,-0.0073649,-2.0053109,-0.6110151,-0.5320593,-1.1839498
0.5225000,0.5225000,0.5225000,-0.5972903,-0.0072358,-1.9759683,-0.5972903,-0.5191919,-1.1684545
0.5250000,0.5250000,0.5250000,-0.5836767,-0.0071244,-1.9471705,-0.5836767,-0.5065566,-1.1522636
0.5275000,0.5275000,0.5275000,-0.5702003,-0.0070281,-1.9189068,-0.5702003,-0.4941625,-1.1354429
0.5300000,0.5300000,0.5300000,-0.5568834,-0.0069448,-1.8911665,-0.5568834,-0.4820164,-1.1180612
0.5325000,0.5325000,0.5325000,-0.5437456,-0.0068725,-1.8639393,-0.5437456,-0.4701236,-1.1001891
0.5350000,0.5350000,0.5350000,-0.5308030,-0.0068096,-1.8372145,-0.5308030,-0.4584878,-1.0818974
0.5375000,0.5375000,0.5375000,-0.5180697,-0.0067545,-1.8109822,-0.5180697,-0.4471112,-1.0632559
0.5400000,0.5400000,0.5400000,-0.5055569,-0.0067058,-1.7852321,-0.5055569,-0.4359951,-1.0443324
0.5425000,0.5425000,0.5425000,-0.4932738,-0.0066626,-1.7599543,-0.4932738,-0.4251394,-1.0251923
0.5450000,0.5450000,0.5450000,-0.4812280,-0.0066238,-1.7351391,-0.4812280,-0.4145433,-1.0058972
0.5475000,0.5475000,0.5475000,-0.4694249,-0.0065885,-1.7107768,-0.4694249,-0.4042053,-0.9865049
0.5500000,0.5500000,0.5500000,-0.4578686,-0.0065561,-1.6868580,-0.4578686,-0.3941230,-0.9670692
0.5525000,0.5525000,0.5525000,-0.4465619,-0.0065259,-1.6633735,-0.4465619,-0.3842936,-0.9476396
0.5550000,0.5550000,0.5550000,-0.4355064,-0.0064973,-1.6403141,-0.4355064,-0.3747139,-0.9282610
0.5575000,0.5575000,0.5575000,-0.4247026,-0.0064700,-1.6176709,-0.4247026,-0.3653800,-0.9089743
0.5600000,0.5600000,0.5600000,-0.4141502,-0.0064435,-1.5954353,-0.4141502,-0.3562880,-0.8898160
0.5625000,0.5625000,0.5625000,-0.4038480,-0.0064175,-1.5735985,-0.4038480,-0.3474334,-0.8708188
0.5650000,0.5650000,0.5650000,-0.3937942,-0.0063918,-1.5521523,-0.3937942,-0.3388118,-0.8520116
0.5675000,0.5675000,0.5675000,-0.3839864,-0.0063662,-1.5310884,-0.3839864,-0.3304184,-0.8334194
0.5700000,0.5700000,0.5700000,-0.3744218,-0.0063404,-1.5103987,-0.3744218,-0.3222484,-0.8150643
0.5725000,0.5725000,0.5725000,-0.3650970,-0.0063142,-1.4900755,-0.3650970,-0.3142968,-0.7969652
0.5750000,0.5750000,0.5750000,-0.3560085,-0.0062877,-1.4701110,-0.3560085,-0.3065586,-0.7791381
0.5775000,0.5775000,0.5775000,-0.3471523,-0.0062607,-1.4504976,-0.3471523,-0.2990288,-0.7615964
0.5800000,0.5800000,0.5800000,-0.3385242,-0.0062331,-1.4312280,-0.3385242,-0.2917022,-0.7443513
0.5825000,0.5825000,0.5825000,-0.3301200,-0.0062049,-1.4122949,-0.3301200,-0.2845740,-0.7274119
0.5850000,0.5850000,0.5850000,-0.3219350,-0.0061760,-1.3936915,-0.3219350,-0.2776390,-0.7107852
0.5875000,0.5875000,0.5875000,-0.3139648,-0.0061465,-1.3754106,-0.3139648,-0.2708922,-0.6944767
0.5900000,0.5900000,0.5900000,-0.3062046,-0.0061162,-1.3574457,-0.3062046,-0.2643287,-0.6784901
0.5925000,0.5925000,0.5925000,-0.2986496,-0.0060853,-1.3397901,-0.2986496,-0.2579436,-0.6628281
0.5950000,0.5950000,0.5950000,-0.2912952,-0.0060536,-1.3224374,-0.2912952,-0.2517322,-0.6474919
0.5975000,0.5975000,0.5975000,-0.2841365,-0.0060213,-1.3053813,-0.2841365,-0.2456896,-0.6324817
0.6000000,0.6000000,0.6000000,-0.2771688,-0.0059883,-1.2886156,-0.2771688,-0.2398113,-0.6177969
0.6025000,0.6025000,0.6025000,-0.2703873,-0.0059547,-1.2721345,-0.2703873,-0.2340927,-0.6034359
0.6050000,0.6050000,0.6050000,-0.2637873,-0.0059205,-1.2559319,-0.2637873,-0.2285294,-0.5893964
0.6075000,0.6075000,0.6075000,-0.2573642,-0.0058857,-1.2400022,-0.2573642,-0.2231169,-0.5756756
0.6100000,0.6100000,0.6100000,-0.2511133,-0.0058503,-1.2243398,-0.2511133,-0.2178511,-0.5622701
0.6125000,0.6125000,0.6125000,-0.2450301,-0.0058144,-1.2089392,-0.2450301,-0.2127277,-0.5491760
0.6150000,0.6150000,0.6150000,-0.2391102,-0.0057780,-1.1937951,-0.2391102,-0.2077428,-0.5363889
0.6175000,0.6175000,0.6175000,-0.2333491,-0.0057412,-1.1789022,-0.2333491,-0.2028922,-0.5239044
0.6200000,0.6200000,0.6200000,-0.2277426,-0.0057039,-1.1642555,-0.2277426,-0.1981723,-0.5117176
0.6225000,0.6225000,0.6225000,-0.2222864,-0.0056663,-1.1498499,-0.2222864,-0.1935791,-0.4998233
0.6250000,0.6250000,0.6250000,-0.2169763,-0.0056283,-1.1356806,-0.2169763,-0.1891091,-0.4882163
0.6275000,0.6275000,0.6275000,-0.2118084,-0.0055899,-1.1217429,-0.2118084,-0.1847587,-0.4768911
0.6300000,0.6300000,0.6300000,-0.2067787,-0.0055513,-1.1080321,-0.2067787,-0.1805245,-0.4658421
0.6325000,0.6325000,0.6325000,-0.2018834,-0.0055124,-1.0945436,-0.2018834,-0.1764030,-0.4550639
0.6350000,0.6350000,0.6350000,-0.1971186,-0.0054732,-1.0812731,-0.1971186,-0.1723910,-0.4445506
0.6375000,0.6375000,0.6375000,-0.1924807,-0.0054339,-1.0682162,-0.1924807,-0.1684853,-0.4342966
0.6400000,0.6400000,0.6400000,-0.1879662,-0.0053944,-1.0553686,-0.1879662,-0.1646828,-0.4242962
0.6425000,0.6425000,0.6425000,-0.1835714,-0.0053547,-1.0427263,-0.1835714,-0.1609806,-0.4145436
0.6450000,0.6450000,0.6450000,-0.1792931,-0.0053149,-1.0302851,-0.1792931,-0.1573757,-0.4050332
0.6475000,0.6475000,0.6475000,-0.1751280,-0.0052750,-1.0180412,-0.1751280,-0.1538653,-0.3957593
0.6500000,0.6500000,0.6500000,-0.1710727,-0.0052351,-1.0059907,-0.1710727,-0.1504467,-0.3867164
0.6525000,0.6525000,0.6525000,-0.1671242,-0.0051951,-0.9941298,-0.1671242,-0.1471172,-0.3778989
0.6550000,0.6550000,0.6550000,-0.1632795,-0.0051551,-0.9824548,-0.1632795,-0.1438742,-0.3693012
0.6575000,0.6575000,0.6575000,-0.1595356,-0.0051150,-0.9709621,-0.1595356,-0.1407153,-0.3609182
0.6600000,0.6600000,0.6600000,-0.1558896,-0.0050750,-0.9596482,-0.1558896,-0.1376379,-0.3527443
0.6625000,0.6625000,0.6625000,-0.1523388,-0.0050350,-0.9485097,-0.1523388,-0.1346398,-0.3447744
0.6650000,0.6650000,0.6650000,-0.1488803,-0.0049951,-0.9375432,-0.1488803,-0.1317187,-0.3370034
0.6675000,0.6675000,0.6675000,-0.1455117,-0.0049553,-0.9267454,-0.1455117,-0.1288723,-0.3294263
0.6700000,0.6700000,0.6700000,-0.1422303,-0.0049155,-0.9161131,-0.1422303,-0.1260986,-0.3220380
0.6725000,0.6725000,0.6725000,-0.1390336,-0.0048759,-0.9056432,-0.1390336,-0.1233953,-0.3148338
0.6750000,0.6750000,0.6750000,-0.1359193,-0.0048363,-0.8953325,-0.1359193,-0.1207606,-0.3078088
0.6775000,0.6775000,0.6775000,-0.1328851,-0.0047969,-0.8851781,-0.1328851,-0.1181925,-0.3009586
0.6800000,0.6800000,0.6800000,-0.1299285,-0.0047577,-0.8751770,-0.1299285,-0.1156890,-0.2942785
0.6825000,0.6825000,0.6825000,-0.1270475,-0.0047186,-0.8653264,-0.1270475,-0.1132484,-0.2877641
0.6850000,0.6850000,0.6850000,-0.1242399,-0.0046796,-0.8556235,-0.1242399,-0.1108688,-0.2814111
0.6875000,0.6875000,0.6875000,-0.1215036,-0.0046409,-0.8460655,-0.1215036,-0.1085485,-0.2752152
0.6900000,0.6900000,0.6900000,-0.1188367,-0.0046023,-0.8366496,-0.1188367,-0.1062859,-0.2691724
0.6925000,0.6925000,0.6925000,-0.1162371,-0.0045639,-0.8273734,-0.1162371,-0.1040794,-0.2632786
0.6950000,0.6950000,0.6950000,-0.1137030,-0.0045258,-0.8182342,-0.1137030,-0.1019273,-0.2575299
0.6975000,0.6975000,0.6975000,-0.1112326,-0.0044878,-0.8092295,-0.1112326,-0.0998281,-0.2519224
0.7000000,0.7000000,0.7000000,-0.1088240,-0.0044501,-0.8003569,-0.1088240,-0.0977804,-0.2464525
0.7025000,0.7025000,0.7025000,-0.1064755,-0.0044126,-0.7916138,-0.1064755,-0.0957827,-0.2411164
0.7050000,0.7050000,0.7050000,-0.1041855,-0.0043754,-0.7829981,-0.1041855,-0.0938337,-0.2359107
0.7075000,0.7075000,0.7075000,-0.1019523,-0.0043383,-0.7745074,-0.1019523,-0.0919319,-0.2308320
0.7100000,0.7100000,0.7100000,-0.0997744,-0.0043016,-0.7661393,-0.0997744,-0.0900761,-0.2258768
0.7125000,0.7125000,0.7125000,-0.0976502,-0.0042651,-0.7578918,-0.0976502,-0.0882651,-0.2210419
0.7150000,0.7150000,0.7150000,-0.0955783,-0.0042288,-0.7497626,-0.0955783,-0.0864975,-0.2163242
0.7175000,0.7175000,0.7175000,-0.0935571,-0.0041928,-0.7417497,-0.0935571,-0.0847722,-0.2117204
0.7200000,0.7200000,0.7200000,-0.0915854,-0.0041571,-0.7338509,-0.0915854,-0.0830881,-0.2072277
0.7225000,0.7225000,0.7225000,-0.0896617,-0.0041216,-0.7260643,-0.0896617,-0.0814440,-0.2028430
0.7250000,0.7250000,0.7250000,-0.0877847,-0.0040864,-0.7183879,-0.0877847,-0.0798388,-0.1985636
0.7275000,0.7275000,0.7275000,-0.0859532,-0.0040515,-0.7108197,-0.0859532,-0.0782716,-0.1943867
0.7300000,0.7300000,0.7300000,-0.0841659,-0.0040168,-0.7033577,-0.0841659,-0.0767411,-0.1903095
0.7325000,0.7325000,0.7325000,-0.0824216,-0.0039825,-0.6960003,-0.0824216,-0.0752466,-0.1863295
0.7350000,0.7350000,0.7350000,-0.0807192,-0.0039484,-0.6887455,-0.0807192,-0.0737869,-0.1824441
0.7375000,0.7375000,0.7375000,-0.0790575,-0.0039146,-0.6815915,-0.0790575,-0.0723612,-0.1786507
0.7400000,0.7400000,0.7400000,-0.0774354,-0.0038810,-0.6745367,-0.0774354,-0.0709686,-0.1749471
0.7425000,0.7425000,0.7425000,-0.0758519,-0.0038478,-0.6675792,-0.0758519,-0.0696082,-0.1713309
0.7450000,0.7450000,0.7450000,-0.0743059,-0.0038148,-0.6607175,-0.0743059,-0.0682791,-0.1677997
0.7475000,0.7475000,0.7475000,-0.0727964,-0.0037821,-0.6539498,-0.0727964,-0.0669805,-0.1643514
0.7500000,0.7500000,0.7500000,-0.0713225,-0.0037497,-0.6472746,-0.0713225,-0.0657116,-0.1609838
0.7525000,0.7525000,0.7525000,-0.0698832,-0.0037176,-0.6406903,-0.0698832,-0.0644716,-0.1576948
0.7550000,0.7550000,0.7550000,-0.0684776,-0.0036858,-0.6341953,-0.0684776,-0.0632597,-0.1544824
0.7575000,0.7575000,0.7575000,-0.0671047,-0.0036543,-0.6277882,-0.0671047,-0.0620754,-0.1513445
0.7600000,0.7600000,0.7600000,-0.0657638,-0.0036230,-0.6214675,-0.0657638,-0.0609177,-0.1482794
0.7625000,0.7625000,0.7625000,-0.0644540,-0.0035920,-0.6152316,-0.0644540,-0.0597860,-0.1452850
0.7650000,0.7650000,0.7650000,-0.0631744,-0.0035613,-0.6090792,-0.0631744,-0.0586797,-0.1423596
0.7675000,0.7675000,0.7675000,-0.0619244,-0.0035309,-0.6030089,-0.0619244,-0.0575981,-0.1395014
0.7700000,0.7700000,0.7700000,-0.0607030,-0.0035008,-0.5970193,-0.0607030,-0.0565405,-0.1367087
0.7725000,0.7725000,0.7725000,-0.0595096,-0.0034710,-0.5911091,-0.0595096,-0.0555064,-0.1339797
0.7750000,0.7750000,0.7750000,-0.0583435,-0.0034414,-0.5852769,-0.0583435,-0.0544951,-0.1313130
0.7775000,0.7775000,0.7775000,-0.0572039,-0.0034121,-0.5795216,-0.0572039,-0.0535061,-0.1287068
0.7800000,0.7800000,0.7800000,-0.0560901,-0.0033831,-0.5738417,-0.0560901,-0.0525388,-0.1261597
0.7825000,0.7825000,0.7825000,-0.0550016,-0.0033543,-0.5682362,-0.0550016,-0.0515926,-0.1236702
0.7850000,0.7850000,0.7850000,-0.0539376,-0.0033259,-0.5627036,-0.0539376,-0.0506670,-0.1212367
0.7875000,0.7875000,0.7875000,-0.0528975,-0.0032977,-0.5572430,-0.0528975,-0.0497615,-0.1188580
0.7900000,0.7900000,0.7900000,-0.0518807,-0.0032698,-0.5518531,-0.0518807,-0.0488757,-0.1165325
0.7925000,0.7925000,0.7925000,-0.0508866,-0.0032421,-0.5465327,-0.0508866,-0.0480089,-0.1142590
0.7950000,0.7950000,0.7950000,-0.0499146,-0.0032147,-0.5412808,-0.0499146,-0.0471607,-0.1120362
0.7975000,0.7975000,0.7975000,-0.0489642,-0.0031876,-0.5360963,-0.0489642,-0.0463307,-0.1098628
0.8000000,0.8000000,0.8000000,-0.0480349,-0.0031607,-0.5309780,-0.0480349,-0.0455185,-0.1077376
0.8025000,0.8025000,0.8025000,-0.0471261,-0.0031342,-0.5259249,-0.0471261,-0.0447235,-0.1056593
0.8050000,0.8050000,0.8050000,-0.0462372,-0.0031078,-0.5209360,-0.0462372,-0.0439453,-0.1036269
0.8075000,0.8075000,0.8075000,-0.0453679,-0.0030817,-0.5160103,-0.0453679,-0.0431836,-0.1016391
0.8100000,0.8100000,0.8100000,-0.0445176,-0.0030559,-0.5111467,-0.0445176,-0.0424379,-0.0996949
0.8125000,0.8125000,0.8125000,-0.0436858,-0.0030303,-0.5063443,-0.0436858,-0.0417079,-0.0977932
0.8150000,0.8150000,0.8150000,-0.0428720,-0.0030050,-0.5016020,-0.0428720,-0.0409931,-0.0959329
0.8175000,0.8175000,0.8175000,-0.0420759,-0.0029800,-0.4969191,-0.0420759,-0.0402932,-0.0941131
0.8200000,0.8200000,0.8200000,-0.0412970,-0.0029551,-0.4922945,-0.0412970,-0.0396079,-0.0923327
0.8225000,0.8225000,0.8225000,-0.0405349,-0.0029306,-0.4877274,-0.0405349,-0.0389367,-0.0905909
0.8250000,0.8250000,0.8250000,-0.0397892,-0.0029062,-0.4832168,-0.0397892,-0.0382794,-0.0888865
0.8275000,0.8275000,0.8275000,-0.0390594,-0.0028822,-0.4787618,-0.0390594,-0.0376356,-0.0872189
0.8300000,0.8300000,0.8300000,-0.0383451,-0.0028583,-0.4743617,-0.0383451,-0.0370050,-0.0855869
0.8325000,0.8325000,0.8325000,-0.0376461,-0.0028347,-0.4700156,-0.0376461,-0.0363873,-0.0839899
0.8350000,0.8350000,0.8350000,-0.0369619,-0.0028113,-0.4657226,-0.0369619,-0.0357822,-0.0824269
0.8375000,0.8375000,0.8375000,-0.0362922,-0.0027882,-0.4614819,-0.0362922,-0.0351893,-0.0808971
0.8400000,0.8400000,0.8400000,-0.0356366,-0.0027653,-0.4572928,-0.0356366,-0.0346084,-0.0793998
0.8425000,0.8425000,0.8425000,-0.0349947,-0.0027426,-0.4531544,-0.0349947,-0.0340392,-0.0779342
0.8450000,0.8450000,0.8450000,-0.0343664,-0.0027201,-0.4490660,-0.0343664,-0.0334815,-0.0764994
0.8475000,0.8475000,0.8475000,-0.0337511,-0.0026979,-0.4450268,-0.0337511,-0.0329349,-0.0750949
0.8500000,0.8500000,0.8500000,-0.0331487,-0.0026759,-0.4410361,-0.0331487,-0.0323992,-0.0737198
0.8525000,0.8525000,0.8525000,-0.0325588,-0.0026541,-0.4370932,-0.0325588,-0.0318741,-0.0723734
0.8550000,0.8550000,0.8550000,-0.0319812,-0.0026325,-0.4331973,-0.0319812,-0.0313595,-0.0710551
0.8575000,0.8575000,0.8575000,-0.0314154,-0.0026111,-0.4293477,-0.0314154,-0.0308551,-0.0697643
0.8600000,0.8600000,0.8600000,-0.0308613,-0.0025900,-0.4255439,-0.0308613,-0.0303605,-0.0685002
0.8625000,0.8625000,0.8625000,-0.0303186,-0.0025690,-0.4217850,-0.0303186,-0.0298757,-0.0672623
0.8650000,0.8650000,0.8650000,-0.0297870,-0.0025483,-0.4180704,-0.0297870,-0.0294004,-0.0660500
0.8675000,0.8675000,0.8675000,-0.0292663,-0.0025278,-0.4143994,-0.0292663,-0.0289343,-0.0648625
0.8700000,0.8700000,0.8700000,-0.0287561,-0.0025075,-0.4107715,-0.0287561,-0.0284773,-0.0636995
0.8725000,0.8725000,0.8725000,-0.0282564,-0.0024874,-0.4071860,-0.0282564,-0.0280291,-0.0625602
0.8750000,0.8750000,0.8750000,-0.0277667,-0.0024674,-0.4036422,-0.0277667,-0.0275896,-0.0614443
0.8775000,0.8775000,0.8775000,-0.0272869,-0.0024477,-0.4001396,-0.0272869,-0.0271585,-0.0603510
0.8800000,0.8800000,0.8800000,-0.0268168,-0.0024282,-0.3966776,-0.0268168,-0.0267357,-0.0592799
0.8825000,0.8825000,0.8825000,-0.0263561,-0.0024089,-0.3932555,-0.0263561,-0.0263210,-0.0582305
0.8850000,0.8850000,0.8850000,-0.0259046,-0.0023897,-0.3898729,-0.0259046,-0.0259142,-0.0572023
0.8875000,0.8875000,0.8875000,-0.0254621,-0.0023708,-0.3865290,-0.0254621,-0.0255151,-0.0561949
0.8900000,0.8900000,0.8900000,-0.0250284,-0.0023520,-0.3832235,-0.0250284,-0.0251236,-0.0552076
0.8925000,0.8925000,0.8925000,-0.0246034,-0.0023335,-0.3799557,-0.0246034,-0.0247395,-0.0542401
0.8950000,0.8950000,0.8950000,-0.0241867,-0.0023151,-0.3767250,-0.0241867,-0.0243626,-0.0532920
0.8975000,0.8975000,0.8975000,-0.0237783,-0.0022969,-0.3735311,-0.0237783,-0.0239928,-0.0523628
0.9000000,0.9000000,0.9000000,-0.0233779,-0.0022789,-0.3703732,-0.0233779,-0.0236298,-0.0514520
0.9025000,0.9025000,0.9025000,-0.0229853,-0.0022610,-0.3672510,-0.0229853,-0.0232737,-0.0505593
0.9050000,0.9050000,0.9050000,-0.0226004,-0.0022433,-0.3641639,-0.0226004,-0.0229241,-0.0496843
0.9075000,0.9075000,0.9075000,-0.0222231,-0.0022258,-0.3611115,-0.0222231,-0.0225810,-0.0488265
0.9100000,0.9100000,0.9100000,-0.0218531,-0.0022085,-0.3580932,-0.0218531,-0.0222443,-0.0479855
0.9125000,0.9125000,0.9125000,-0.0214902,-0.0021914,-0.3551085,-0.0214902,-0.0219138,-0.0471611
0.9150000,0.9150000,0.9150000,-0.0211344,-0.0021744,-0.3521571,-0.0211344,-0.0215893,-0.0463528
0.9175000,0.9175000,0.9175000,-0.0207854,-0.0021576,-0.3492384,-0.0207854,-0.0212707,-0.0455603
0.9200000,0.9200000,0.9200000,-0.0204432,-0.0021409,-0.3463520,-0.0204432,-0.0209580,-0.0447832
0.9225000,0.9225000,0.9225000,-0.0201075,-0.0021244,-0.3434974,-0.0201075,-0.0206509,-0.0440212
0.9250000,0.9250000,0.9250000,-0.0197782,-0.0021081,-0.3406742,-0.0197782,-0.0203494,-0.0432740
0.9275000,0.9275000,0.9275000,-0.0194553,-0.0020919,-0.3378820,-0.0194553,-0.0200533,-0.0425412
0.9300000,0.9300000,0.9300000,-0.0191384,-0.0020759,-0.3351203,-0.0191384,-0.0197626,-0.0418225
0.9325000,0.9325000,0.9325000,-0.0188276,-0.0020601,-0.3323887,-0.0188276,-0.0194771,-0.0411176
0.9350000,0.9350000,0.9350000,-0.0185227,-0.0020444,-0.3296869,-0.0185227,-0.0191967,-0.0404263
0.9375000,0.9375000,0.9375000,-0.0182235,-0.0020288,-0.3270144,-0.0182235,-0.0189213,-0.0397481
0.9400000,0.9400000,0.9400000,-0.0179299,-0.0020134,-0.3243707,-0.0179299,-0.0186507,-0.0390829
0.9425000,0.9425000,0.9425000,-0.0176419,-0.0019982,-0.3217556,-0.0176419,-0.0183850,-0.0384304
0.9450000,0.9450000,0.9450000,-0.0173593,-0.0019831,-0.3191686,-0.0173593,-0.0181240,-0.0377902
0.9475000,0.9475000,0.9475000,-0.0170819,-0.0019681,-0.3166094,-0.0170819,-0.0178675,-0.0371622
0.9500000,0.9500000,0.9500000,-0.0168097,-0.0019533,-0.3140776,-0.0168097,-0.0176156,-0.0365460
0.9525000,0.9525000,0.9525000,-0.0165425,-0.0019386,-0.3115728,-0.0165425,-0.0173681,-0.0359414
0.9550000,0.9550000,0.9550000,-0.0162803,-0.0019241,-0.3090946,-0.0162803,-0.0171249,-0.0353482
0.9575000,0.9575000,0.9575000,-0.0160230,-0.0019097,-0.3066428,-0.0160230,-0.0168859,-0.0347661
0.9600000,0.9600000,0.9600000,-0.0157703,-0.0018955,-0.3042169,-0.0157703,-0.0166511,-0.0341949
0.9625000,0.9625000,0.9625000,-0.0155224,-0.0018814,-0.3018166,-0.0155224,-0.0164203,-0.0336343
0.9650000,0.9650000,0.9650000,-0.0152789,-0.0018674,-0.2994416,-0.0152789,-0.0161935,-0.0330842
0.9675000,0.9675000,0.9675000,-0.0150400,-0.0018536,-0.2970915,-0.0150400,-0.0159706,-0.0325443
0.9700000,0.9700000,0.9700000,-0.0148053,-0.0018398,-0.2947660,-0.0148053,-0.0157515,-0.0320144
0.9725000,0.9725000,0.9725000,-0.0145750,-0.0018263,-0.2924648,-0.0145750,-0.0155362,-0.0314942
0.9750000,0.9750000,0.9750000,-0.0143488,-0.0018128,-0.2901876,-0.0143488,-0.0153245,-0.0309837
0.9775000,0.9775000,0.9775000,-0.0141267,-0.0017995,-0.2879341,-0.0141267,-0.0151164,-0.0304825
0.9800000,0.9800000,0.9800000,-0.0139086,-0.0017863,-0.2857039,-0.0139086,-0.0149119,-0.0299905
0.9825000,0.9825000,0.9825000,-0.0136945,-0.0017732,-0.2834967,-0.0136945,-0.0147107,-0.0295075
0.9850000,0.9850000,0.9850000,-0.0134841,-0.0017603,-0.2813123,-0.0134841,-0.0145130,-0.0290333
0.9875000,0.9875000,0.9875000,-0.0132776,-0.0017474,-0.2791504,-0.0132776,-0.0143186,-0.0285678
0.9900000,0.9900000,0.9900000,-0.0130747,-0.0017347,-0.2770106,-0.0130747,-0.0141274,-0.0281107
0.9925000,0.9925000,0.9925000,-0.0128755,-0.0017222,-0.2748927,-0.0128755,-0.0139395,-0.0276619
0.9950000,0.9950000,0.9950000,-0.0126798,-0.0017097,-0.2727965,-0.0126798,-0.0137546,-0.0272212
0.9975000,0.9975000,0.9975000,-0.0124875,-0.0016973,-0.2707215,-0.0124875,-0.0135728,-0.0267885
1.0000000,1.0000000,1.0000000,-0.0122987,-0.0016851,-0.2686676,-0.0122987,-0.0133941,-0.0263635
1.0025000,1.0025000,1.0025000,-0.0121131,-0.0016730,-0.2666345,-0.0121131,-0.0132182,-0.0259462
1.0050000,1.0050000,1.0050000,-0.0119309,-0.0016610,-0.2646219,-0.0119309,-0.0130453,-0.0255363
1.0075000,1.0075000,1.0075000,-0.0117518,-0.0016491,-0.2626296,-0.0117518,-0.0128751,-0.0251337
1.0100000,1.0100000,1.0100000,-0.0115759,-0.0016373,-0.2606574,-0.0115759,-0.0127078,-0.0247384
1.0125000,1.0125000,1.0125000,-0.0114031,-0.0016256,-0.2587048,-0.0114031,-0.0125432,-0.0243500
1.0150000,1.0150000,1.0150000,-0.0112332,-0.0016140,-0.2567718,-0.0112332,-0.0123812,-0.0239686
1.0175000,1.0175000,1.0175000,-0.0110663,-0.0016026,-0.2548581,-0.0110663,-0.0122219,-0.0235939
1.0200000,1.0200000,1.0200000,-0.0109023,-0.0015912,-0.2529634,-0.0109023,-0.0120652,-0.0232258
1.0225000,1.0225000,1.0225000,-0.0107411,-0.0015800,-0.2510875,-0.0107411,-0.0119109,-0.0228642
1.0250000,1.0250000,1.0250000,-0.0105827,-0.0015688,-0.2492301,-0.0105827,-0.0117592,-0.0225089
1.0275000,1.0275000,1.0275000,-0.0104270,-0.0015578,-0.2473911,-0.0104270,-0.0116098,-0.0221599
1.0300000,1.0300000,1.0300000,-0.0102740,-0.0015468,-0.2455702,-0.0102740,-0.0114629,-0.0218169
1.0325000,1.0325000,1.0325000,-0.0101237,-0.0015360,-0.2437671,-0.0101237,-0.0113183,-0.0214800
1.0350000,1.0350000,1.0350000,-0.0099758,-0.0015252,-0.2419818,-0.0099758,-0.0111760,-0.0211489
1.0375000,1.0375000,1.0375000,-0.0098305,-0.0015146,-0.2402138,-0.0098305,-0.0110359,-0.0208236
1.0400000,1.0400000,1.0400000,-0.0096877,-0.0015040,-0.2384631,-0.0096877,-0.0108980,-0.0205039
1.0425000,1.0425000,1.0425000,-0.0095473,-0.0014936,-0.2367295,-0.0095473,-0.0107623,-0.0201898
1.0450000,1.0450000,1.0450000,-0.0094092,-0.0014832,-0.2350126,-0.0094092,-0.0106288,-0.0198810
1.0475000,1.0475000,1.0475000,-0.0092735,-0.0014729,-0.2333124,-0.0092735,-0.0104973,-0.0195776
1.0500000,1.0500000,1.0500000,-0.0091401,-0.0014628,-0.2316285,-0.0091401,-0.0103678,-0.0192794
1.0525000,1.0525000,1.0525000,-0.0090089,-0.0014527,-0.2299609,-0.0090089,-0.0102404,-0.0189863
1.0550000,1.0550000,1.0550000,-0.0088799,-0.0014427,-0.2283093,-0.0088799,-0.0101150,-0.0186983
1.0575000,1.0575000,1.0575000,-0.0087530,-0.0014328,-0.2266735,-0.0087530,-0.0099915,-0.0184151
1.0600000,1.0600000,1.0600000,-0.0086283,-0.0014230,-0.2250534,-0.0086283,-0.0098698,-0.0181368
1.0625000,1.0625000,1.0625000,-0.0085056,-0.0014132,-0.2234487,-0.0085056,-0.0097501,-0.0178631
1.0650000,1.0650000,1.0650000,-0.0083850,-0.0014036,-0.2218593,-0.0083850,-0.0096322,-0.0175942
1.0675000,1.0675000,1.0675000,-0.0082663,-0.0013941,-0.2202849,-0.0082663,-0.0095161,-0.0173297
1.0700000,1.0700000,1.0700000,-0.0081497,-0.0013846,-0.2187255,-0.0081497,-0.0094017,-0.0170698
1.0725000,1.0725000,1.0725000,-0.0080349,-0.0013752,-0.2171808,-0.0080349,-0.0092891,-0.0168142
1.0750000,1.0750000,1.0750000,-0.0079220,-0.0013659,-0.2156506,-0.0079220,-0.0091782,-0.0165629
1.0775000,1.0775000,1.0775000,-0.0078110,-0.0013567,-0.2141348,-0.0078110,-0.0090690,-0.0163158
1.0800000,1.0800000,1.0800000,-0.0077018,-0.0013475,-0.2126332,-0.0077018,-0.0089614,-0.0160729
1.0825000,1.0825000,1.0825000,-0.0075944,-0.0013385,-0.2111457,-0.0075944,-0.0088555,-0.0158340
1.0850000,1.0850000,1.0850000,-0.0074887,-0.0013295,-0.2096721,-0.0074887,-0.0087511,-0.0155991
1.0875000,1.0875000,1.0875000,-0.0073847,-0.0013206,-0.2082122,-0.0073847,-0.0086483,-0.0153681
1.0900000,1.0900000,1.0900000,-0.0072824,-0.0013118,-0.2067658,-0.0072824,-0.0085470,-0.0151409
1.0925000,1.0925000,1.0925000,-0.0071818,-0.0013030,-0.2053329,-0.0071818,-0.0084472,-0.0149175
1.0950000,1.0950000,1.0950000,-0.0070828,-0.0012944,-0.2039132,-0.0070828,-0.0083489,-0.0146978
1.0975000,1.0975000,1.0975000,-0.0069853,-0.0012858,-0.2025066,-0.0069853,-0.0082520,-0.0144817
1.1000000,1.1000000,1.1000000,-0.0068895,-0.0012773,-0.2011129,-0.0068895,-0.0081566,-0.0142692
1.1025000,1.1025000,1.1025000,-0.0067951,-0.0012688,-0.1997320,-0.0067951,-0.0080626,-0.0140601
1.1050000,1.1050000,1.1050000,-0.0067023,-0.0012604,-0.1983638,-0.0067023,-0.0079699,-0.0138545
1.1075000,1.1075000,1.1075000,-0.0066110,-0.0012521,-0.1970081,-0.0066110,-0.0078786,-0.0136522
1.1100000,1.1100000,1.1100000,-0.0065211,-0.0012439,-0.1956647,-0.0065211,-0.0077886,-0.0134532
1.1125000,1.1125000,1.1125000,-0.0064326,-0.0012358,-0.1943336,-0.0064326,-0.0077000,-0.0132575
1.1150000,1.1150000,1.1150000,-0.0063455,-0.0012277,-0.1930145,-0.0063455,-0.0076126,-0.0130650
1.1175000,1.1175000,1.1175000,-0.0062598,-0.0012197,-0.1917074,-0.0062598,-0.0075265,-0.0128755
1.1200000,1.1200000,1.1200000,-0.0061755,-0.0012117,-0.1904121,-0.0061755,-0.0074416,-0.0126892
1.1225000,1.1225000,1.1225000,-0.0060925,-0.0012038,-0.1891284,-0.0060925,-0.0073579,-0.0125058
1.1250000,1.1250000,1.1250000,-0.0060108,-0.0011960,-0.1878563,-0.0060108,-0.0072755,-0.0123254
1.1275000,1.1275000,1.1275000,-0.0059303,-0.0011883,-0.1865956,-0.0059303,-0.0071942,-0.0121479
1.1300000,1.1300000,1.1300000,-0.0058511,-0.0011806,-0.1853463,-0.0058511,-0.0071141,-0.0119733
1.1325000,1.1325000,1.1325000,-0.0057732,-0.0011730,-0.1841080,-0.0057732,-0.0070351,-0.0118014
1.1350000,1.1350000,1.1350000,-0.0056964,-0.0011654,-0.1828808,-0.0056964,-0.0069572,-0.0116323
1.1375000,1.1375000,1.1375000,-0.0056209,-0.0011579,-0.1816645,-0.0056209,-0.0068804,-0.0114659
1.1400000,1.1400000,1.1400000,-0.0055465,-0.0011505,-0.1804590,-0.0055465,-0.0068047,-0.0113021
1.1425000,1.1425000,1.1425000,-0.0054733,-0.0011432,-0.1792642,-0.0054733,-0.0067301,-0.0111410
1.1450000,1.1450000,1.1450000,-0.0054012,-0.0011359,-0.1780799,-0.0054012,-0.0066565,-0.0109824
1.1475000,1.1475000,1.1475000,-0.0053301,-0.0011286,-0.1769061,-0.0053301,-0.0065840,-0.0108263
1.1500000,1.1500000,1.1500000,-0.0052602,-0.0011215,-0.1757425,-0.0052602,-0.0065124,-0.0106726
1.1525000,1.1525000,1.1525000,-0.0051914,-0.0011143,-0.1745892,-0.0051914,-0.0064419,-0.0105214
1.1550000,1.1550000,1.1550000,-0.0051236,-0.0011073,-0.1734460,-0.0051236,-0.0063723,-0.0103726
1.1575000,1.1575000,1.1575000,-0.0050568,-0.0011003,-0.1723128,-0.0050568,-0.0063037,-0.0102261
1.1600000,1.1600000,1.1600000,-0.0049911,-0.0010933,-0.1711894,-0.0049911,-0.0062360,-0.0100819
1.1625000,1.1625000,1.1625000,-0.0049263,-0.0010865,-0.1700758,-0.0049263,-0.0061693,-0.0099400
1.1650000,1.1650000,1.1650000,-0.0048626,-0.0010796,-0.1689719,-0.0048626,-0.0061035,-0.0098002
1.1675000,1.1675000,1.1675000,-0.0047998,-0.0010729,-0.1678775,-0.0047998,-0.0060385,-0.0096627
1.1700000,1.1700000,1.1700000,-0.0047379,-0.0010661,-0.1667926,-0.0047379,-0.0059745,-0.0095273
1.1725000,1.1725000,1.1725000,-0.0046770,-0.0010595,-0.1657170,-0.0046770,-0.0059113,-0.0093939
1.1750000,1.1750000,1.1750000,-0.0046169,-0.0010529,-0.1646507,-0.0046169,-0.0058490,-0.0092627
1.1775000,1.1775000,1.1775000,-0.0045578,-0.0010463,-0.1635935,-0.0045578,-0.0057876,-0.0091335
1.1800000,1.1800000,1.1800000,-0.0044996,-0.0010398,-0.1625454,-0.0044996,-0.0057269,-0.0090062
1.1825000,1.1825000,1.1825000,-0.0044422,-0.0010334,-0.1615063,-0.0044422,-0.0056671,-0.0088810
1.1850000,1.1850000,1.1850000,-0.0043857,-0.0010270,-0.1604760,-0.0043857,-0.0056081,-0.0087576
1.1875000,1.1875000,1.1875000,-0.0043300,-0.0010207,-0.1594544,-0.0043300,-0.0055499,-0.0086362
1.1900000,1.1900000,1.1900000,-0.0042751,-0.0010144,-0.1584416,-0.0042751,-0.0054924,-0.0085166
1.1925000,1.1925000,1.1925000,-0.0042211,-0.0010081,-0.1574373,-0.0042211,-0.0054357,-0.0083988
1.1950000,1.1950000,1.1950000,-0.0041678,-0.0010020,-0.1564415,-0.0041678,-0.0053798,-0.0082829
1.1975000,1.1975000,1.1975000,-0.0041154,-0.0009958,-0.1554541,-0.0041154,-0.0053246,-0.0081686
1.2000000,1.2000000,1.2000000,-0.0040637,-0.0009897,-0.1544751,-0.0040637,-0.0052701,-0.0080562
1.2025000,1.2025000,1.2025000,-0.0040127,-0.0009837,-0.1535042,-0.0040127,-0.0052164,-0.0079454
1.2050000,1.2050000,1.2050000,-0.0039625,-0.0009777,-0.1525415,-0.0039625,-0.0051634,-0.0078363
1.2075000,1.2075000,1.2075000,-0.0039131,-0.0009718,-0.1515868,-0.0039131,-0.0051110,-0.0077289
1.2100000,1.2100000,1.2100000,-0.0038643,-0.0009659,-0.1506402,-0.0038643,-0.0050594,-0.0076231
1.2125000,1.2125000,1.2125000,-0.0038163,-0.0009600,-0.1497013,-0.0038163,-0.0050084,-0.0075188
1.2150000,1.2150000,1.2150000,-0.0037690,-0.0009542,-0.1487703,-0.0037690,-0.0049580,-0.0074162
1.2175000,1.2175000,1.2175000,-0.0037223,-0.0009485,-0.1478471,-0.0037223,-0.0049084,-0.0073151
1.2200000,1.2200000,1.2200000,-0.0036763,-0.0009428,-0.1469314,-0.0036763,-0.0048593,-0.0072155
1.2225000,1.2225000,1.2225000,-0.0036310,-0.0009371,-0.1460233,-0.0036310,-0.0048109,-0.0071174
1.2250000,1.2250000,1.2250000,-0.0035863,-0.0009315,-0.1451228,-0.0035863,-0.0047632,-0.0070207
1.2275000,1.2275000,1.2275000,-0.0035423,-0.0009259,-0.1442296,-0.0035423,-0.0047160,-0.0069255
1.2300000,1.2300000,1.2300000,-0.0034989,-0.0009204,-0.1433437,-0.0034989,-0.0046694,-0.0068317
1.2325000,1.2325000,1.2325000,-0.0034561,-0.0009149,-0.1424651,-0.0034561,-0.0046235,-0.0067393
1.2350000,1.2350000,1.2350000,-0.0034140,-0.0009095,-0.1415937,-0.0034140,-0.0045781,-0.0066482
1.2375000,1.2375000,1.2375000,-0.0033724,-0.0009041,-0.1407294,-0.0033724,-0.0045333,-0.0065586
1.2400000,1.2400000,1.2400000,-0.0033314,-0.0008987,-0.1398721,-0.0033314,-0.0044891,-0.0064702
1.2425000,1.2425000,1.2425000,-0.0032910,-0.0008934,-0.1390218,-0.0032910,-0.0044454,-0.0063831
1.2450000,1.2450000,1.2450000,-0.0032512,-0.0008881,-0.1381784,-0.0032512,-0.0044023,-0.0062973
1.2475000,1.2475000,1.2475000,-0.0032119,-0.0008829,-0.1373418,-0.0032119,-0.0043597,-0.0062128
1.2500000,1.2500000,1.2500000,-0.0031732,-0.0008777,-0.1365120,-0.0031732,-0.0043176,-0.0061295
1.2525000,1.2525000,1.2525000,-0.0031351,-0.0008725,-0.1356888,-0.0031351,-0.0042761,-0.0060475
1.2550000,1.2550000,1.2550000,-0.0030974,-0.0008674,-0.1348723,-0.0030974,-0.0042351,-0.0059666
1.2575000,1.2575000,1.2575000,-0.0030603,-0.0008624,-0.1340623,-0.0030603,-0.0041946,-0.0058869
1.2600000,1.2600000,1.2600000,-0.0030237,-0.0008573,-0.1332588,-0.0030237,-0.0041546,-0.0058084
1.2625000,1.2625000,1.2625000,-0.0029877,-0.0008523,-0.1324618,-0.0029877,-0.0041151,-0.0057310
1.2650000,1.2650000,1.2650000,-0.0029521,-0.0008474,-0.1316710,-0.0029521,-0.0040761,-0.0056547
1.2675000,1.2675000,1.2675000,-0.0029170,-0.0008425,-0.1308866,-0.0029170,-0.0040376,-0.0055795
1.2700000,1.2700000,1.2700000,-0.0028824,-0.0008376,-0.1301084,-0.0028824,-0.0039995,-0.0055055
1.2725000,1.2725000,1.2725000,-0.0028483,-0.0008327,-0.1293364,-0.0028483,-0.0039620,-0.0054325
1.2750000,1.2750000,1.2750000,-0.0028146,-0.0008279,-0.1285705,-0.0028146,-0.0039248,-0.0053605
1.2775000,1.2775000,1.2775000,-0.0027815,-0.0008232,-0.1278107,-0.0027815,-0.0038881,-0.0052896
1.2800000,1.2800000,1.2800000,-0.0027487,-0.0008184,-0.1270568,-0.0027487,-0.0038519,-0.0052197
1.2825000,1.2825000,1.2825000,-0.0027165,-0.0008137,-0.1263089,-0.0027165,-0.0038161,-0.0051508
1.2850000,1.2850000,1.2850000,-0.0026846,-0.0008091,-0.1255668,-0.0026846,-0.0037808,-0.0050829
1.2875000,1.2875000,1.2875000,-0.0026532,-0.0008044,-0.1248305,-0.0026532,-0.0037458,-0.0050159
1.2900000,1.2900000,1.2900000,-0.0026223,-0.0007999,-0.1241000,-0.0026223,-0.0037113,-0.0049499
1.2925000,1.2925000,1.2925000,-0.0025917,-0.0007953,-0.1233752,-0.0025917,-0.0036772,-0.0048849
1.2950000,1.2950000,1.2950000,-0.0025616,-0.0007908,-0.1226561,-0.0025616,-0.0036435,-0.0048208
1.2975000,1.2975000,1.2975000,-0.0025318,-0.0007863,-0.1219425,-0.0025318,-0.0036103,-0.0047575
1.3000000,1.3000000,1.3000000,-0.0025025,-0.0007818,-0.1212345,-0.0025025,-0.0035774,-0.0046952
1.3025000,1.3025000,1.3025000,-0.0024736,-0.0007774,-0.1205320,-0.0024736,-0.0035449,-0.0046338
1.3050000,1.3050000,1.3050000,-0.0024450,-0.0007730,-0.1198348,-0.0024450,-0.0035128,-0.0045732
1.3075000,1.3075000,1.3075000,-0.0024169,-0.0007687,-0.1191431,-0.0024169,-0.0034810,-0.0045135
1.3100000,1.3100000,1.3100000,-0.0023891,-0.0007644,-0.1184567,-0.0023891,-0.0034497,-0.0044546
1.3125000,1.3125000,1.3125000,-0.0023617,-0.0007601,-0.1177755,-0.0023617,-0.0034187,-0.0043966
1.3150000,1.3150000,1.3150000,-0.0023347,-0.0007558,-0.1170996,-0.0023347,-0.0033881,-0.0043393
1.3175000,1.3175000,1.3175000,-0.0023080,-0.0007516,-0.1164289,-0.0023080,-0.0033578,-0.0042829
1.3200000,1.3200000,1.3200000,-0.0022817,-0.0007474,-0.1157633,-0.0022817,-0.0033279,-0.0042272
1.3225000,1.3225000,1.3225000,-0.0022557,-0.0007432,-0.1151027,-0.0022557,-0.0032983,-0.0041724
1.3250000,1.3250000,1.3250000,-0.0022301,-0.0007391,-0.1144472,-0.0022301,-0.0032691,-0.0041183
1.3275000,1.3275000,1.3275000,-0.0022048,-0.0007350,-0.1137966,-0.0022048,-0.0032402,-0.0040649
1.3300000,1.3300000,1.3300000,-0.0021798,-0.0007309,-0.1131510,-0.0021798,-0.0032117,-0.0040123
1.3325000,1.3325000,1.3325000,-0.0021552,-0.0007269,-0.1125103,-0.0021552,-0.0031834,-0.0039604
1.3350000,1.3350000,1.3350000,-0.0021309,-0.0007228,-0.1118744,-0.0021309,-0.0031556,-0.0039093
1.3375000,1.3375000,1.3375000,-0.0021069,-0.0007189,-0.1112433,-0.0021069,-0.0031280,-0.0038588
1.3400000,1.3400000,1.3400000,-0.0020832,-0.0007149,-0.1106170,-0.0020832,-0.0031007,-0.0038091
1.3425000,1.3425000,1.3425000,-0.0020599,-0.0007110,-0.1099953,-0.0020599,-0.0030738,-0.0037600
1.3450000,1.3450000,1.3450000,-0.0020368,-0.0007071,-0.1093783,-0.0020368,-0.0030471,-0.0037116
1.3475000,1.3475000,1.3475000,-0.0020141,-0.0007032,-0.1087659,-0.0020141,-0.0030208,-0.0036639
1.3500000,1.3500000,1.3500000,-0.0019916,-0.0006994,-0.1081581,-0.0019916,-0.0029948,-0.0036168
1.3525000,1.3525000,1.3525000,-0.0019695,-0.0006956,-0.1075548,-0.0019695,-0.0029690,-0.0035704
1.3550000,1.3550000,1.3550000,-0.0019476,-0.0006918,-0.1069561,-0.0019476,-0.0029436,-0.0035246
1.3575000,1.3575000,1.3575000,-0.0019260,-0.0006880,-0.1063617,-0.0019260,-0.0029184,-0.0034794
1.3600000,1.3600000,1.3600000,-0.0019047,-0.0006843,-0.1057718,-0.0019047,-0.0028935,-0.0034348
1.3625000,1.3625000,1.3625000,-0.0018837,-0.0006806,-0.1051862,-0.0018837,-0.0028689,-0.0033909
1.3650000,1.3650000,1.3650000,-0.0018629,-0.0006769,-0.1046049,-0.0018629,-0.0028446,-0.0033476
1.3675000,1.3675000,1.3675000,-0.0018424,-0.0006732,-0.1040280,-0.0018424,-0.0028206,-0.0033048
1.3700000,1.3700000,1.3700000,-0.0018222,-0.0006696,-0.1034552,-0.0018222,-0.0027968,-0.0032626
1.3725000,1.3725000,1.3725000,-0.0018022,-0.0006660,-0.1028867,-0.0018022,-0.0027733,-0.0032210
1.3750000,1.3750000,1.3750000,-0.0017825,-0.0006624,-0.1023224,-0.0017825,-0.0027500,-0.0031800
1.3775000,1.3775000,1.3775000,-0.0017630,-0.0006589,-0.1017621,-0.0017630,-0.0027270,-0.0031395
1.3800000,1.3800000,1.3800000,-0.0017438,-0.0006554,-0.1012060,-0.0017438,-0.0027042,-0.0030995
1.3825000,1.3825000,1.3825000,-0.0017248,-0.0006519,-0.1006539,-0.0017248,-0.0026817,-0.0030601
1.3850000,1.3850000,1.3850000,-0.0017060,-0.0006484,-0.1001058,-0.0017060,-0.0026595,-0.0030212
1.3875000,1.3875000,1.3875000,-0.0016875,-0.0006449,-0.0995617,-0.0016875,-0.0026375,-0.0029829
1.3900000,1.3900000,1.3900000,-0.0016693,-0.0006415,-0.0990216,-0.0016693,-0.0026157,-0.0029450
1.3925000,1.3925000,1.3925000,-0.0016512,-0.0006381,-0.0984853,-0.0016512,-0.0025942,-0.0029077
1.3950000,1.3950000,1.3950000,-0.0016334,-0.0006347,-0.0979529,-0.0016334,-0.0025729,-0.0028709
1.3975000,1.3975000,1.3975000,-0.0016158,-0.0006314,-0.0974244,-0.0016158,-0.0025518,-0.0028345
1.4000000,1.4000000,1.4000000,-0.0015985,-0.0006280,-0.0968997,-0.0015985,-0.0025310,-0.0027987
1.4025000,1.4025000,1.4025000,-0.0015813,-0.0006247,-0.0963787,-0.0015813,-0.0025103,-0.0027633
1.4050000,1.4050000,1.4050000,-0.0015644,-0.0006214,-0.0958615,-0.0015644,-0.0024899,-0.0027284
1.4075000,1.4075000,1.4075000,-0.0015477,-0.0006182,-0.0953480,-0.0015477,-0.0024698,-0.0026939
1.4100000,1.4100000,1.4100000,-0.0015312,-0.0006149,-0.0948381,-0.0015312,-0.0024498,-0.0026599
1.4125000,1.4125000,1.4125000,-0.0015149,-0.0006117,-0.0943319,-0.0015149,-0.0024301,-0.0026264
1.4150000,1.4150000,1.4150000,-0.0014988,-0.0006085,-0.0938292,-0.0014988,-0.0024105,-0.0025933
1.4175000,1.4175000,1.4175000,-0.0014829,-0.0006054,-0.0933302,-0.0014829,-0.0023912,-0.0025606
1.4200000,1.4200000,1.4200000,-0.0014671,-0.0006022,-0.0928347,-0.0014671,-0.0023721,-0.0025284
1.4225000,1.4225000,1.4225000,-0.0014516,-0.0005991,-0.0923427,-0.0014516,-0.0023532,-0.0024965
1.4250000,1.4250000,1.4250000,-0.0014363,-0.0005960,-0.0918541,-0.0014363,-0.0023344,-0.0024651
1.4275000,1.4275000,1.4275000,-0.0014212,-0.0005929,-0.0913690,-0.0014212,-0.0023159,-0.0024342
1.4300000,1.4300000,1.4300000,-0.0014062,-0.0005898,-0.0908874,-0.0014062,-0.0022976,-0.0024036
1.4325000,1.4325000,1.4325000,-0.0013915,-0.0005868,-0.0904091,-0.0013915,-0.0022795,-0.0023734
1.4350000,1.4350000,1.4350000,-0.0013769,-0.0005838,-0.0899342,-0.0013769,-0.0022615,-0.0023436
1.4375000,1.4375000,1.4375000,-0.0013625,-0.0005808,-0.0894626,-0.0013625,-0.0022438,-0.0023142
1.4400000,1.4400000,1.4400000,-0.0013482,-0.0005778,-0.0889943,-0.0013482,-0.0022262,-0.0022852
1.4425000,1.4425000,1.4425000,-0.0013342,-0.0005748,-0.0885292,-0.0013342,-0.0022088,-0.0022566
1.4450000,1.4450000,1.4450000,-0.0013203,-0.0005719,-0.0880674,-0.0013203,-0.0021916,-0.0022283
1.4475000,1.4475000,1.4475000,-0.0013066,-0.0005690,-0.0876088,-0.0013066,-0.0021745,-0.0022004
1.4500000,1.4500000,1.4500000,-0.0012930,-0.0005661,-0.0871534,-0.0012930,-0.0021577,-0.0021729
1.4525000,1.4525000,1.4525000,-0.0012796,-0.0005632,-0.0867012,-0.0012796,-0.0021410,-0.0021457
1.4550000,1.4550000,1.4550000,-0.0012664,-0.0005603,-0.0862521,-0.0012664,-0.0021245,-0.0021189
1.4575000,1.4575000,1.4575000,-0.0012534,-0.0005575,-0.0858061,-0.0012534,-0.0021082,-0.0020924
1.4600000,1.4600000,1.4600000,-0.0012404,-0.0005546,-0.0853631,-0.0012404,-0.0020920,-0.0020663
1.4625000,1.4625000,1.4625000,-0.0012277,-0.0005518,-0.0849232,-0.0012277,-0.0020760,-0.0020405
1.4650000,1.4650000,1.4650000,-0.0012151,-0.0005490,-0.0844864,-0.0012151,-0.0020601,-0.0020150
1.4675000,1.4675000,1.4675000,-0.0012026,-0.0005463,-0.0840525,-0.0012026,-0.0020444,-0.0019899
1.4700000,1.4700000,1.4700000,-0.0011903,-0.0005435,-0.0836216,-0.0011903,-0.0020289,-0.0019651
1.4725000,1.4725000,1.4725000,-0.0011782,-0.0005408,-0.0831936,-0.0011782,-0.0020135,-0.0019406
1.4750000,1.4750000,1.4750000,-0.0011662,-0.0005381,-0.0827686,-0.0011662,-0.0019983,-0.0019164
1.4775000,1.4775000,1.4775000,-0.0011543,-0.0005354,-0.0823465,-0.0011543,-0.0019833,-0.0018925
1.4800000,1.4800000,1.4800000,-0.0011426,-0.0005327,-0.0819272,-0.0011426,-0.0019683,-0.0018689
1.4825000,1.4825000,1.4825000,-0.0011310,-0.0005301,-0.0815108,-0.0011310,-0.0019536,-0.0018457
1.4850000,1.4850000,1.4850000,-0.0011195,-0.0005274,-0.0810972,-0.0011195,-0.0019390,-0.0018227
1.4875000,1.4875000,1.4875000,-0.0011082,-0.0005248,-0.0806863,-0.0011082,-0.0019245,-0.0018000
1.4900000,1.4900000,1.4900000,-0.0010970,-0.0005222,-0.0802783,-0.0010970,-0.0019102,-0.0017776
1.4925000,1.4925000,1.4925000,-0.0010860,-0.0005196,-0.0798730,-0.0010860,-0.0018960,-0.0017555
1.4950000,1.4950000,1.4950000,-0.0010751,-0.0005170,-0.0794705,-0.0010751,-0.0018820,-0.0017336
1.4975000,1.4975000,1.4975000,-0.0010643,-0.0005145,-0.0790706,-0.0010643,-0.0018681,-0.0017121
1.5000000,1.5000000,1.5000000,-0.0010536,-0.0005119,-0.0786735,-0.0010536,-0.0018543,-0.0016908
1.5025000,1.5025000,1.5025000,-0.0010431,-0.0005094,-0.0782790,-0.0010431,-0.0018407,-0.0016698
1.5050000,1.5050000,1.5050000,-0.0010326,-0.0005069,-0.0778871,-0.0010326,-0.0018272,-0.0016490
1.5075000,1.5075000,1.5075000,-0.0010223,-0.0005044,-0.0774978,-0.0010223,-0.0018138,-0.0016285
1.5100000,1.5100000,1.5100000,-0.0010122,-0.0005019,-0.0771112,-0.0010122,-0.0018006,-0.0016083
1.5125000,1.5125000,1.5125000,-0.0010021,-0.0004995,-0.0767271,-0.0010021,-0.0017875,-0.0015883
1.5150000,1.5150000,1.5150000,-0.0009922,-0.0004970,-0.0763456,-0.0009922,-0.0017745,-0.0015686
1.5175000,1.5175000,1.5175000,-0.0009823,-0.0004946,-0.0759665,-0.0009823,-0.0017616,-0.0015491
1.5200000,1.5200000,1.5200000,-0.0009726,-0.0004922,-0.0755900,-0.0009726,-0.0017489,-0.0015299
1.5225000,1.5225000,1.5225000,-0.0009630,-0.0004898,-0.0752160,-0.0009630,-0.0017363,-0.0015109
1.5250000,1.5250000,1.5250000,-0.0009535,-0.0004874,-0.0748445,-0.0009535,-0.0017238,-0.0014921
1.5275000,1.5275000,1.5275000,-0.0009441,-0.0004851,-0.0744754,-0.0009441,-0.0017115,-0.0014736
1.5300000,1.5300000,1.5300000,-0.0009349,-0.0004827,-0.0741087,-0.0009349,-0.0016992,-0.0014553
1.5325000,1.5325000,1.5325000,-0.0009257,-0.0004804,-0.0737444,-0.0009257,-0.0016871,-0.0014373
1.5350000,1.5350000,1.5350000,-0.0009166,-0.0004781,-0.0733826,-0.0009166,-0.0016751,-0.0014194
1.5375000,1.5375000,1.5375000,-0.0009077,-0.0004758,-0.0730231,-0.0009077,-0.0016632,-0.0014018
1.5400000,1.5400000,1.5400000,-0.0008988,-0.0004735,-0.0726659,-0.0008988,-0.0016514,-0.0013844
1.5425000,1.5425000,1.5425000,-0.0008900,-0.0004712,-0.0723111,-0.0008900,-0.0016397,-0.0013672
1.5450000,1.5450000,1.5450000,-0.0008814,-0.0004689,-0.0719585,-0.0008814,-0.0016282,-0.0013502
1.5475000,1.5475000,1.5475000,-0.0008728,-0.0004667,-0.0716083,-0.0008728,-0.0016167,-0.0013335
1.5500000,1.5500000,1.5500000,-0.0008644,-0.0004645,-0.0712603,-0.0008644,-0.0016054,-0.0013169
1.5525000,1.5525000,1.5525000,-0.0008560,-0.0004623,-0.0709146,-0.0008560,-0.0015941,-0.0013006
1.5550000,1.5550000,1.5550000,-0.0008477,-0.0004601,-0.0705712,-0.0008477,-0.0015830,-0.0012844
1.5575000,1.5575000,1.5575000,-0.0008395,-0.0004579,-0.0702299,-0.0008395,-0.0015720,-0.0012684
1.5600000,1.5600000,1.5600000,-0.0008315,-0.0004557,-0.0698909,-0.0008315,-0.0015611,-0.0012527
1.5625000,1.5625000,1.5625000,-0.0008235,-0.0004535,-0.0695540,-0.0008235,-0.0015502,-0.0012371
1.5650000,1.5650000,1.5650000,-0.0008155,-0.0004514,-0.0692193,-0.0008155,-0.0015395,-0.0012217
1.5675000,1.5675000,1.5675000,-0.0008077,-0.0004492,-0.0688867,-0.0008077,-0.0015289,-0.0012066
1.5700000,1.5700000,1.5700000,-0.0008000,-0.0004471,-0.0685563,-0.0008000,-0.0015184,-0.0011916
1.5725000,1.5725000,1.5725000,-0.0007924,-0.0004450,-0.0682280,-0.0007924,-0.0015079,-0.0011767
1.5750000,1.5750000,1.5750000,-0.0007848,-0.0004429,-0.0679018,-0.0007848,-0.0014976,-0.0011621
1.5775000,1.5775000,1.5775000,-0.0007773,-0.0004408,-0.0675776,-0.0007773,-0.0014874,-0.0011477
1.5800000,1.5800000,1.5800000,-0.0007699,-0.0004388,-0.0672555,-0.0007699,-0.0014772,-0.0011334
1.5825000,1.5825000,1.5825000,-0.0007626,-0.0004367,-0.0669355,-0.0007626,-0.0014672,-0.0011193
1.5850000,1.5850000,1.5850000,-0.0007554,-0.0004347,-0.0666175,-0.0007554,-0.0014572,-0.0011053
1.5875000,1.5875000,1.5875000,-0.0007482,-0.0004326,-0.0663015,-0.0007482,-0.0014474,-0.0010916
1.5900000,1.5900000,1.5900000,-0.0007412,-0.0004306,-0.0659875,-0.0007412,-0.0014376,-0.0010780
1.5925000,1.5925000,1.5925000,-0.0007342,-0.0004286,-0.0656755,-0.0007342,-0.0014279,-0.0010645
1.5950000,1.5950000,1.5950000,-0.0007273,-0.0004266,-0.0653655,-0.0007273,-0.0014183,-0.0010513
1.5975000,1.5975000,1.5975000,-0.0007204,-0.0004247,-0.0650574,-0.0007204,-0.0014088,-0.0010382
