# r[nm],d[nm],daligned[nm],U(d)[kj/mol],V(d)[e/nm],Uslab(d)[kJ/mol],UC(d)[kJ/mol],UK(d)[kJ/mol],UCl(d)[kJ/mol]
0.1950000,0.1950000,0.1950000,1718.4242772,-0.3068649,125.9138364,1718.4242772,1101.3149925,inf
0.1975000,0.1975000,0.1975000,1511.3937759,-0.2988248,109.6032623,1511.3937759,967.8801001,inf
0.2000000,0.2000000,0.2000000,1330.7509974,-0.2910535,95.7855562,1330.7509974,851.5379040,inf
0.2025000,0.2025000,0.2025000,1172.9408727,-0.2835447,83.9856892,1172.9408727,749.9739175,inf
0.2050000,0.2050000,0.2050000,1034.9063169,-0.2763258,73.8432937,1034.9063169,661.1861634,inf
0.2075000,0.2075000,0.2075000,913.9780184,-0.2695885,65.0769112,913.9780184,583.4211777,inf
0.2100000,0.2100000,0.2100000,807.7532197,-0.2638272,57.4612705,807.7532197,515.1474534,inf
0.2125000,0.2125000,0.2125000,714.1147167,-0.2592378,50.8126372,714.1147167,455.0827630,inf
0.2150000,0.2150000,0.2150000,631.4481117,-0.2549404,44.9791841,631.4481117,402.2032879,inf
0.2175000,0.2175000,0.2175000,558.5769548,-0.2501704,39.8344592,558.5769548,355.6721554,inf
0.2200000,0.2200000,0.2200000,494.4548987,-0.2449575,35.2725511,494.4548987,314.7552790,inf
0.2225000,0.2225000,0.2225000,438.0704303,-0.2395477,31.2038995,438.0704303,278.7851995,1781.2500071
0.2250000,0.2250000,0.2250000,388.4823293,-0.2341097,27.5516452,388.4823293,247.1553082,1581.1727467
0.2275000,0.2275000,0.2275000,344.8456566,-0.2287255,24.2495681,344.8456566,219.3183425,1404.8574926
0.2300000,0.2300000,0.2300000,306.4139959,-0.2234107,21.2424114,306.4139959,194.7825853,1249.3203444
0.2325000,0.2325000,0.2325000,272.5302265,-0.2180991,18.4876207,272.5302265,173.1090481,1111.9740550
0.2350000,0.2350000,0.2350000,242.6140944,-0.2125944,15.9562068,242.6140944,153.9132282,990.5722744
0.2375000,0.2375000,0.2375000,216.1516583,-0.2065378,13.6310490,216.1516583,136.8697274,883.1619019
0.2400000,0.2400000,0.2400000,192.6901201,-0.1994859,11.5028908,192.6901201,121.7124354,788.0415217
0.2425000,0.2425000,0.2425000,171.8384356,-0.1911430,9.5657560,171.8384356,108.2252233,703.7228962
0.2450000,0.2450000,0.2450000,153.2688692,-0.1816032,7.8134809,153.2688692,96.2269794,628.8933489
0.2475000,0.2475000,0.2475000,136.7123985,-0.1713495,6.2380034,136.7123985,85.5587918,562.3843861
0.2500000,0.2500000,0.2500000,121.9463362,-0.1609970,4.8290941,121.9463362,76.0769191,503.1617044
0.2525000,0.2525000,0.2525000,108.7798303,-0.1510336,3.5748690,108.7798303,67.6503320,450.3404511
0.2550000,0.2550000,0.2550000,97.0432808,-0.1417331,2.4625377,97.0432808,60.1602937,403.1926928
0.2575000,0.2575000,0.2575000,86.5830770,-0.1331998,1.4790857,86.5830770,53.5003015,361.1154534
0.2600000,0.2600000,0.2600000,77.2598018,-0.1254416,0.6117874,77.2598018,47.5757342,323.5821324
0.2625000,0.2625000,0.2625000,68.9477407,-0.1184142,-0.1514576,68.9477407,42.3031200,290.1127437
0.2650000,0.2650000,0.2650000,61.5344475,-0.1120345,-0.8219307,61.5344475,37.6091260,260.2653648
0.2675000,0.2675000,0.2675000,54.9199723,-0.1061838,-1.4100038,54.9199723,33.4293991,233.6359742
0.2700000,0.2700000,0.2700000,49.0158091,-0.1007214,-1.9251160,49.0158091,29.7073692,209.8589233
0.2725000,0.2725000,0.2725000,43.7437466,-0.0955125,-2.3757906,43.7437466,26.3931073,188.6062218
0.2750000,0.2750000,0.2750000,39.0347437,-0.0904607,-2.7696732,39.0347437,23.4423107,169.5859192
0.2775000,0.2775000,0.2775000,34.8278635,-0.0855274,-3.1135814,34.8278635,20.8154674,152.5400457
0.2800000,0.2800000,0.2800000,31.0692595,-0.0807303,-3.4135632,31.0692595,18.4772194,137.2423091
0.2825000,0.2825000,0.2825000,27.7112122,-0.0761215,-3.6749600,27.7112122,16.3959003,123.4955422
0.2850000,0.2850000,0.2850000,24.7112475,-0.0717575,-3.9024739,24.7112475,14.5431835,111.1288280
0.2875000,0.2875000,0.2875000,22.0313813,-0.0676749,-4.1002301,22.0313813,12.8937790,99.9942953
0.2900000,0.2900000,0.2900000,19.6375296,-0.0638816,-4.2718304,19.6375296,11.4251408,89.9637120
0.2925000,0.2925000,0.2925000,17.4990782,-0.0603642,-4.4203961,17.4990782,10.1171788,80.9251295
0.2950000,0.2950000,0.2950000,15.5885648,-0.0571020,-4.5486037,15.5885648,8.9519857,72.7798582
0.2975000,0.2975000,0.2975000,13.8814117,-0.0540800,-4.6587203,13.8814117,7.9135926,65.4399797
0.3000000,0.3000000,0.3000000,12.3556670,-0.0512941,-4.7526442,12.3556670,6.9877599,58.8264762
0.3025000,0.3025000,0.3025000,10.9917398,-0.0487482,-4.8319567,10.9917398,6.1618048,52.8679382
0.3050000,0.3050000,0.3050000,9.7721410,-0.0464487,-4.8979819,9.7721410,5.4244568,47.4997233
0.3075000,0.3075000,0.3075000,8.6812424,-0.0443969,-4.9518502,8.6812424,4.7657299,42.6633915
0.3100000,0.3100000,0.3100000,7.7050684,-0.0425852,-4.9945573,7.7050684,4.1767996,38.3062511
0.3125000,0.3125000,0.3125000,6.8311228,-0.0409957,-5.0270110,6.8311228,3.6498769,34.3808968
0.3150000,0.3150000,0.3150000,6.0482470,-0.0396015,-5.0500629,6.0482470,3.1780819,30.8447014
0.3175000,0.3175000,0.3175000,5.3464986,-0.0383702,-5.0645253,5.3464986,2.7553245,27.6592842
0.3200000,0.3200000,0.3200000,4.7170391,-0.0372671,-5.0711778,4.7170391,2.3762021,24.7900144
0.3225000,0.3225000,0.3225000,4.1520221,-0.0362579,-5.0707685,4.1520221,2.0359132,22.2055946
0.3250000,0.3250000,0.3250000,3.6444811,-0.0353110,-5.0640148,3.6444811,1.7301898,19.8777347
0.3275000,0.3275000,0.3275000,3.1882254,-0.0343996,-5.0516028,3.1882254,1.4552410,17.7808913
0.3300000,0.3300000,0.3300000,2.7777466,-0.0335035,-5.0341862,2.7777466,1.2077065,15.8920390
0.3325000,0.3325000,0.3325000,2.4081399,-0.0326109,-5.0123847,2.4081399,0.9846153,14.1904496
0.3350000,0.3350000,0.3350000,2.0750390,-0.0317187,-4.9867802,2.0750390,0.7833490,12.6574698
0.3375000,0.3375000,0.3375000,1.7745601,-0.0308314,-4.9579140,1.7745601,0.6016066,11.2763044
0.3400000,0.3400000,0.3400000,1.5032542,-0.0299595,-4.9262797,1.5032542,0.4373721,10.0318146
0.3425000,0.3425000,0.3425000,1.2580633,-0.0291168,-4.8923158,1.2580633,0.2888840,8.9103406
0.3450000,0.3450000,0.3450000,1.0362820,-0.0283180,-4.8563961,1.0362820,0.1546066,7.8995506
0.3475000,0.3475000,0.3475000,0.8355212,-0.0275774,-4.8188228,0.8355212,0.0332027,6.9883148
0.3500000,0.3500000,0.3500000,0.6536756,-0.0269067,-4.7798234,0.6536756,-0.0764934,6.1665992
0.3525000,0.3525000,0.3525000,0.4888937,-0.0263152,-4.7395548,0.4888937,-0.1755009,5.4253699
0.3550000,0.3550000,0.3550000,0.3395504,-0.0258082,-4.6981120,0.3395504,-0.2647168,4.7565046
0.3575000,0.3575000,0.3575000,0.2042204,-0.0253879,-4.6555427,0.2042204,-0.3449361,4.1527083
0.3600000,0.3600000,0.3600000,0.0816522,-0.0250523,-4.6118624,0.0816522,-0.4168695,3.6074334
0.3625000,0.3625000,0.3625000,-0.0292561,-0.0247963,-4.5670708,-0.0292561,-0.4811573,3.1148055
0.3650000,0.3650000,0.3650000,-0.1294810,-0.0246114,-4.5211640,-0.1294810,-0.5383821,2.6695548
0.3675000,0.3675000,0.3675000,-0.2198944,-0.0244865,-4.4741457,-0.2198944,-0.5890790,2.2669548
0.3700000,0.3700000,0.3700000,-0.3012813,-0.0244082,-4.4260332,-0.3012813,-0.6337447,1.9027668
0.3725000,0.3725000,0.3725000,-0.3743546,-0.0243621,-4.3768614,-0.3743546,-0.6728434,1.5731903
0.3750000,0.3750000,0.3750000,-0.4397665,-0.0243332,-4.3266830,-0.4397665,-0.7068114,1.2748195
0.3775000,0.3775000,0.3775000,-0.4981188,-0.0243066,-4.2755678,-0.4981188,-0.7360596,1.0046046
0.3800000,0.3800000,0.3800000,-0.5499697,-0.0242684,-4.2236004,-0.5499697,-0.7609771,0.7598174
0.3825000,0.3825000,0.3825000,-0.5958391,-0.0242059,-4.1708764,-0.5958391,-0.7819371,0.5380211
0.3850000,0.3850000,0.3850000,-0.6362123,-0.0241088,-4.1175001,-0.6362123,-0.7993046,0.3370433
0.3875000,0.3875000,0.3875000,-0.6715417,-0.0239689,-4.0635803,-0.6715417,-0.8134427,0.1549510
0.3900000,0.3900000,0.3900000,-0.7022505,-0.0237808,-4.0092282,-0.7022505,-0.8247164,-0.0099730
0.3925000,0.3925000,0.3925000,-0.7287383,-0.0235415,-3.9545544,-0.7287383,-0.8334897,-0.1592528
0.3950000,0.3950000,0.3950000,-0.7513881,-0.0232499,-3.8996667,-0.7513881,-0.8401183,-0.2942425
0.3975000,0.3975000,0.3975000,-0.7705738,-0.0229064,-3.8446690,-0.7705738,-0.8449411,-0.4161485
0.4000000,0.4000000,0.4000000,-0.7866647,-0.0225121,-3.7896599,-0.7866647,-0.8482732,-0.5260513
0.4025000,0.4025000,0.4025000,-0.8000261,-0.0220681,-3.7347314,-0.8000261,-0.8504032,-0.6249248
0.4050000,0.4050000,0.4050000,-0.8110145,-0.0215758,-3.6799693,-0.8110145,-0.8515917,-0.7136536
0.4075000,0.4075000,0.4075000,-0.8199721,-0.0210366,-3.6254519,-0.8199721,-0.8520698,-0.7930477
0.4100000,0.4100000,0.4100000,-0.8272211,-0.0204518,-3.5712508,-0.8272211,-0.8520325,-0.8638532
0.4125000,0.4125000,0.4125000,-0.8330602,-0.0198230,-3.5174304,-0.8330602,-0.8516297,-0.9267615
0.4150000,0.4150000,0.4150000,-0.8377621,-0.0191520,-3.4640484,-0.8377621,-0.8509565,-0.9824148
0.4175000,0.4175000,0.4175000,-0.8415699,-0.0184411,-3.4111562,-0.8415699,-0.8500480,-1.0314101
0.4200000,0.4200000,0.4200000,-0.8446900,-0.0176932,-3.3587987,-0.8446900,-0.8488806,-1.0743016
0.4225000,0.4225000,0.4225000,-0.8472836,-0.0169120,-3.3070155,-0.8472836,-0.8473816,-1.1116048
0.4250000,0.4250000,0.4250000,-0.8494578,-0.0161029,-3.2558406,-0.8494578,-0.8454437,-1.1438002
0.4275000,0.4275000,0.4275000,-0.8512612,-0.0152729,-3.2053031,-0.8512612,-0.8429424,-1.1713389
0.4300000,0.4300000,0.4300000,-0.8526849,-0.0144303,-3.1554277,-0.8526849,-0.8397530,-1.1946494
0.4325000,0.4325000,0.4325000,-0.8536708,-0.0135848,-3.1062349,-0.8536708,-0.8357644,-1.2141421
0.4350000,0.4350000,0.4350000,-0.8541244,-0.0127465,-3.0577413,-0.8541244,-0.8308888,-1.2302129
0.4375000,0.4375000,0.4375000,-0.8539310,-0.0119254,-3.0099605,-0.8539310,-0.8250672,-1.2432442
0.4400000,0.4400000,0.4400000,-0.8529716,-0.0111308,-2.9629026,-0.8529716,-0.8182709,-1.2536043
0.4425000,0.4425000,0.4425000,-0.8511362,-0.0103705,-2.9165753,-0.8511362,-0.8105002,-1.2616455
0.4450000,0.4450000,0.4450000,-0.8483343,-0.0096509,-2.8709837,-0.8483343,-0.8017806,-1.2677016
0.4475000,0.4475000,0.4475000,-0.8445014,-0.0089766,-2.8261306,-0.8445014,-0.7921591,-1.2720839
0.4500000,0.4500000,0.4500000,-0.8396010,-0.0083505,-2.7820171,-0.8396010,-0.7816985,-1.2750763
0.4525000,0.4525000,0.4525000,-0.8336249,-0.0077739,-2.7386423,-0.8336249,-0.7704732,-1.2769272
0.4550000,0.4550000,0.4550000,-0.8265906,-0.0072467,-2.6960039,-0.8265906,-0.7585651,-1.2778427
0.4575000,0.4575000,0.4575000,-0.8185378,-0.0067679,-2.6540983,-0.8185378,-0.7460594,-1.2779789
0.4600000,0.4600000,0.4600000,-0.8095236,-0.0063355,-2.6129206,-0.8095236,-0.7330423,-1.2774383
0.4625000,0.4625000,0.4625000,-0.7996187,-0.0059470,-2.5724650,-0.7996187,-0.7195981,-1.2762698
0.4650000,0.4650000,0.4650000,-0.7889028,-0.0055995,-2.5327248,-0.7889028,-0.7058077,-1.2744739
0.4675000,0.4675000,0.4675000,-0.7774611,-0.0052898,-2.4936923,-0.7774611,-0.6917477,-1.2720113
0.4700000,0.4700000,0.4700000,-0.7653811,-0.0050147,-2.4553595,-0.7653811,-0.6774890,-1.2688149
0.4725000,0.4725000,0.4725000,-0.7527502,-0.0047709,-2.4177175,-0.7527502,-0.6630969,-1.2648021
0.4750000,0.4750000,0.4750000,-0.7396535,-0.0045555,-2.3807571,-0.7396535,-0.6486306,-1.2598868
0.4775000,0.4775000,0.4775000,-0.7261726,-0.0043652,-2.3444687,-0.7261726,-0.6341434,-1.2539898
0.4800000,0.4800000,0.4800000,-0.7123843,-0.0041976,-2.3088423,-0.7123843,-0.6196828,-1.2470462
0.4825000,0.4825000,0.4825000,-0.6983601,-0.0040498,-2.2738677,-0.6983601,-0.6052907,-1.2390106
0.4850000,0.4850000,0.4850000,-0.6841660,-0.0039197,-2.2395345,-0.6841660,-0.5910038,-1.2298592
0.4875000,0.4875000,0.4875000,-0.6698619,-0.0038051,-2.2058320,-0.6698619,-0.5768542,-1.2195908
0.4900000,0.4900000,0.4900000,-0.6555022,-0.0037039,-2.1727496,-0.6555022,-0.5628692,-1.2082249
0.4925000,0.4925000,0.4925000,-0.6411354,-0.0036146,-2.1402765,-0.6411354,-0.5490724,-1.1957996
0.4950000,0.4950000,0.4950000,-0.6268048,-0.0035356,-2.1084019,-0.6268048,-0.5354834,-1.1823689
0.4975000,0.4975000,0.4975000,-0.6125486,-0.0034655,-2.0771149,-0.6125486,-0.5221188,-1.1679988
0.5000000,0.5000000,0.5000000,-0.5984003,-0.0034030,-2.0464046,-0.5984003,-0.5089921,-1.1527649
0.5025000,0.5025000,0.5025000,-0.5843888,-0.0033472,-2.0162604,-0.5843888,-0.4961142,-1.1367487
0.5050000,0.5050000,0.5050000,-0.5705393,-0.0032970,-1.9866715,-0.5705393,-0.4834937,-1.1200353
0.5075000,0.5075000,0.5075000,-0.5568733,-0.0032518,-1.9576272,-0.5568733,-0.4711371,-1.1027109
0.5100000,0.5100000,0.5100000,-0.5434088,-0.0032106,-1.9291171,-0.5434088,-0.4590490,-1.0848613
0.5125000,0.5125000,0.5125000,-0.5301612,-0.0031730,-1.9011305,-0.5301612,-0.4472327,-1.0665698
0.5150000,0.5150000,0.5150000,-0.5171429,-0.0031384,-1.8736573,-0.5171429,-0.4356898,-1.0479166
0.5175000,0.5175000,0.5175000,-0.5043641,-0.0031063,-1.8466873,-0.5043641,-0.4244209,-1.0289777
0.5200000,0.5200000,0.5200000,-0.4918327,-0.0030764,-1.8202103,-0.4918327,-0.4134255,-1.0098244
0.5225000,0.5225000,0.5225000,-0.4795551,-0.0030481,-1.7942164,-0.4795551,-0.4027021,-0.9905227
0.5250000,0.5250000,0.5250000,-0.4675357,-0.0030214,-1.7686960,-0.4675357,-0.3922487,-0.9711338
0.5275000,0.5275000,0.5275000,-0.4557776,-0.0029958,-1.7436394,-0.4557776,-0.3820623,-0.9517131
0.5300000,0.5300000,0.5300000,-0.4442827,-0.0029713,-1.7190371,-0.4442827,-0.3721397,-0.9323113
0.5325000,0.5325000,0.5325000,-0.4330515,-0.0029475,-1.6948799,-0.4330515,-0.3624770,-0.9129739
0.5350000,0.5350000,0.5350000,-0.4220838,-0.0029244,-1.6711586,-0.4220838,-0.3530699,-0.8937414
0.5375000,0.5375000,0.5375000,-0.4113786,-0.0029018,-1.6478642,-0.4113786,-0.3439140,-0.8746500
0.5400000,0.5400000,0.5400000,-0.4009340,-0.0028796,-1.6249881,-0.4009340,-0.3350046,-0.8557316
0.5425000,0.5425000,0.5425000,-0.3907475,-0.0028577,-1.6025215,-0.3907475,-0.3263365,-0.8370142
0.5450000,0.5450000,0.5450000,-0.3808163,-0.0028361,-1.5804560,-0.3808163,-0.3179047,-0.8185220
0.5475000,0.5475000,0.5475000,-0.3711368,-0.0028146,-1.5587834,-0.3711368,-0.3097040,-0.8002759
0.5500000,0.5500000,0.5500000,-0.3617053,-0.0027932,-1.5374954,-0.3617053,-0.3017289,-0.7822939
0.5525000,0.5525000,0.5525000,-0.3525177,-0.0027719,-1.5165843,-0.3525177,-0.2939742,-0.7645910
0.5550000,0.5550000,0.5550000,-0.3435696,-0.0027506,-1.4960420,-0.3435696,-0.2864345,-0.7471797
0.5575000,0.5575000,0.5575000,-0.3348565,-0.0027294,-1.4758611,-0.3348565,-0.2791043,-0.7300704
0.5600000,0.5600000,0.5600000,-0.3263737,-0.0027081,-1.4560340,-0.3263737,-0.2719782,-0.7132711
0.5625000,0.5625000,0.5625000,-0.3181164,-0.0026868,-1.4365535,-0.3181164,-0.2650511,-0.6967884
0.5650000,0.5650000,0.5650000,-0.3100796,-0.0026655,-1.4174124,-0.3100796,-0.2583175,-0.6806269
0.5675000,0.5675000,0.5675000,-0.3022583,-0.0026442,-1.3986036,-0.3022583,-0.2517723,-0.6647899
0.5700000,0.5700000,0.5700000,-0.2946475,-0.0026228,-1.3801204,-0.2946475,-0.2454103,-0.6492794
0.5725000,0.5725000,0.5725000,-0.2872423,-0.0026014,-1.3619560,-0.2872423,-0.2392264,-0.6340962
0.5750000,0.5750000,0.5750000,-0.2800374,-0.0025799,-1.3441040,-0.2800374,-0.2332157,-0.6192401
0.5775000,0.5775000,0.5775000,-0.2730281,-0.0025584,-1.3265578,-0.2730281,-0.2273734,-0.6047100
0.5800000,0.5800000,0.5800000,-0.2662092,-0.0025369,-1.3093112,-0.2662092,-0.2216945,-0.5905041
0.5825000,0.5825000,0.5825000,-0.2595759,-0.0025154,-1.2923581,-0.2595759,-0.2161745,-0.5766199
0.5850000,0.5850000,0.5850000,-0.2531233,-0.0024939,-1.2756925,-0.2531233,-0.2108088,-0.5630542
0.5875000,0.5875000,0.5875000,-0.2468466,-0.0024723,-1.2593085,-0.2468466,-0.2055929,-0.5498035
0.5900000,0.5900000,0.5900000,-0.2407412,-0.0024508,-1.2432004,-0.2407412,-0.2005225,-0.5368636
0.5925000,0.5925000,0.5925000,-0.2348023,-0.0024292,-1.2273627,-0.2348023,-0.1955933,-0.5242302
0.5950000,0.5950000,0.5950000,-0.2290254,-0.0024077,-1.2117898,-0.2290254,-0.1908012,-0.5118984
0.5975000,0.5975000,0.5975000,-0.2234060,-0.0023863,-1.1964764,-0.2234060,-0.1861422,-0.4998635
0.6000000,0.6000000,0.6000000,-0.2179398,-0.0023648,-1.1814172,-0.2179398,-0.1816122,-0.4881200
0.6025000,0.6025000,0.6025000,-0.2126226,-0.0023434,-1.1666072,-0.2126226,-0.1772077,-0.4766628
0.6050000,0.6050000,0.6050000,-0.2074500,-0.0023221,-1.1520414,-0.2074500,-0.1729247,-0.4654862
0.6075000,0.6075000,0.6075000,-0.2024182,-0.0023008,-1.1377148,-0.2024182,-0.1687597,-0.4545847
0.6100000,0.6100000,0.6100000,-0.1975229,-0.0022796,-1.1236227,-0.1975229,-0.1647093,-0.4439527
0.6125000,0.6125000,0.6125000,-0.1927605,-0.0022585,-1.1097605,-0.1927605,-0.1607700,-0.4335844
0.6150000,0.6150000,0.6150000,-0.1881270,-0.0022374,-1.0961235,-0.1881270,-0.1569385,-0.4234740
0.6175000,0.6175000,0.6175000,-0.1836189,-0.0022165,-1.0827074,-0.1836189,-0.1532116,-0.4136160
0.6200000,0.6200000,0.6200000,-0.1792325,-0.0021956,-1.0695077,-0.1792325,-0.1495862,-0.4040044
0.6225000,0.6225000,0.6225000,-0.1749643,-0.0021749,-1.0565201,-0.1749643,-0.1460593,-0.3946337
0.6250000,0.6250000,0.6250000,-0.1708109,-0.0021543,-1.0437407,-0.1708109,-0.1426280,-0.3854982
0.6275000,0.6275000,0.6275000,-0.1667690,-0.0021338,-1.0311651,-0.1667690,-0.1392894,-0.3765923
0.6300000,0.6300000,0.6300000,-0.1628354,-0.0021134,-1.0187896,-0.1628354,-0.1360408,-0.3679104
0.6325000,0.6325000,0.6325000,-0.1590070,-0.0020931,-1.0066101,-0.1590070,-0.1328795,-0.3594471
0.6350000,0.6350000,0.6350000,-0.1552807,-0.0020730,-0.9946229,-0.1552807,-0.1298030,-0.3511970
0.6375000,0.6375000,0.6375000,-0.1516537,-0.0020530,-0.9828243,-0.1516537,-0.1268086,-0.3431547
0.6400000,0.6400000,0.6400000,-0.1481229,-0.0020332,-0.9712106,-0.1481229,-0.1238941,-0.3353151
0.6425000,0.6425000,0.6425000,-0.1446857,-0.0020135,-0.9597783,-0.1446857,-0.1210570,-0.3276731
0.6450000,0.6450000,0.6450000,-0.1413393,-0.0019939,-0.9485239,-0.1413393,-0.1182951,-0.3202235
0.6475000,0.6475000,0.6475000,-0.1380812,-0.0019746,-0.9374440,-0.1380812,-0.1156061,-0.3129615
0.6500000,0.6500000,0.6500000,-0.1349087,-0.0019553,-0.9265352,-0.1349087,-0.1129879,-0.3058823
0.6525000,0.6525000,0.6525000,-0.1318195,-0.0019362,-0.9157944,-0.1318195,-0.1104385,-0.2989810
0.6550000,0.6550000,0.6550000,-0.1288110,-0.0019173,-0.9052183,-0.1288110,-0.1079558,-0.2922531
0.6575000,0.6575000,0.6575000,-0.1258811,-0.0018986,-0.8948039,-0.1258811,-0.1055379,-0.2856941
0.6600000,0.6600000,0.6600000,-0.1230274,-0.0018800,-0.8845480,-0.1230274,-0.1031829,-0.2792995
0.6625000,0.6625000,0.6625000,-0.1202478,-0.0018615,-0.8744478,-0.1202478,-0.1008889,-0.2730649
0.6650000,0.6650000,0.6650000,-0.1175400,-0.0018433,-0.8645003,-0.1175400,-0.0986542,-0.2669863
0.6675000,0.6675000,0.6675000,-0.1149022,-0.0018252,-0.8547027,-0.1149022,-0.0964772,-0.2610594
0.6700000,0.6700000,0.6700000,-0.1123322,-0.0018072,-0.8450521,-0.1123322,-0.0943560,-0.2552803
0.6725000,0.6725000,0.6725000,-0.1098282,-0.0017895,-0.8355459,-0.1098282,-0.0922891,-0.2496450
0.6750000,0.6750000,0.6750000,-0.1073883,-0.0017719,-0.8261815,-0.1073883,-0.0902750,-0.2441497
0.6775000,0.6775000,0.6775000,-0.1050106,-0.0017545,-0.8169561,-0.1050106,-0.0883122,-0.2387907
0.6800000,0.6800000,0.6800000,-0.1026934,-0.0017373,-0.8078672,-0.1026934,-0.0863991,-0.2335644
0.6825000,0.6825000,0.6825000,-0.1004350,-0.0017202,-0.7989124,-0.1004350,-0.0845343,-0.2284672
0.6850000,0.6850000,0.6850000,-0.0982336,-0.0017033,-0.7900892,-0.0982336,-0.0827166,-0.2234957
0.6875000,0.6875000,0.6875000,-0.0960878,-0.0016866,-0.7813951,-0.0960878,-0.0809444,-0.2186466
0.6900000,0.6900000,0.6900000,-0.0939960,-0.0016700,-0.7728280,-0.0939960,-0.0792167,-0.2139165
0.6925000,0.6925000,0.6925000,-0.0919565,-0.0016536,-0.7643855,-0.0919565,-0.0775320,-0.2093024
0.6950000,0.6950000,0.6950000,-0.0899681,-0.0016374,-0.7560653,-0.0899681,-0.0758892,-0.2048011
0.6975000,0.6975000,0.6975000,-0.0880291,-0.0016214,-0.7478652,-0.0880291,-0.0742871,-0.2004097
0.7000000,0.7000000,0.7000000,-0.0861384,-0.0016055,-0.7397831,-0.0861384,-0.0727246,-0.1961252
0.7025000,0.7025000,0.7025000,-0.0842944,-0.0015898,-0.7318170,-0.0842944,-0.0712006,-0.1919447
0.7050000,0.7050000,0.7050000,-0.0824960,-0.0015742,-0.7239647,-0.0824960,-0.0697140,-0.1878655
0.7075000,0.7075000,0.7075000,-0.0807419,-0.0015589,-0.7162242,-0.0807419,-0.0682637,-0.1838850
0.7100000,0.7100000,0.7100000,-0.0790308,-0.0015437,-0.7085936,-0.0790308,-0.0668487,-0.1800004
0.7125000,0.7125000,0.7125000,-0.0773615,-0.0015286,-0.7010709,-0.0773615,-0.0654682,-0.1762093
0.7150000,0.7150000,0.7150000,-0.0757330,-0.0015137,-0.6936542,-0.0757330,-0.0641211,-0.1725092
0.7175000,0.7175000,0.7175000,-0.0741440,-0.0014990,-0.6863417,-0.0741440,-0.0628065,-0.1688976
0.7200000,0.7200000,0.7200000,-0.0725936,-0.0014845,-0.6791316,-0.0725936,-0.0615235,-0.1653723
0.7225000,0.7225000,0.7225000,-0.0710806,-0.0014701,-0.6720220,-0.0710806,-0.0602713,-0.1619310
0.7250000,0.7250000,0.7250000,-0.0696041,-0.0014559,-0.6650114,-0.0696041,-0.0590490,-0.1585714
0.7275000,0.7275000,0.7275000,-0.0681631,-0.0014418,-0.6580978,-0.0681631,-0.0578558,-0.1552914
0.7300000,0.7300000,0.7300000,-0.0667565,-0.0014279,-0.6512797,-0.0667565,-0.0566909,-0.1520890
0.7325000,0.7325000,0.7325000,-0.0653835,-0.0014141,-0.6445555,-0.0653835,-0.0555536,-0.1489621
0.7350000,0.7350000,0.7350000,-0.0640432,-0.0014005,-0.6379235,-0.0640432,-0.0544431,-0.1459086
0.7375000,0.7375000,0.7375000,-0.0627346,-0.0013871,-0.6313822,-0.0627346,-0.0533587,-0.1429268
0.7400000,0.7400000,0.7400000,-0.0614570,-0.0013738,-0.6249300,-0.0614570,-0.0522997,-0.1400147
0.7425000,0.7425000,0.7425000,-0.0602096,-0.0013606,-0.6185654,-0.0602096,-0.0512655,-0.1371705
0.7450000,0.7450000,0.7450000,-0.0589914,-0.0013476,-0.6122870,-0.0589914,-0.0502553,-0.1343925
0.7475000,0.7475000,0.7475000,-0.0578018,-0.0013348,-0.6060932,-0.0578018,-0.0492685,-0.1316789
0.7500000,0.7500000,0.7500000,-0.0566400,-0.0013221,-0.5999827,-0.0566400,-0.0483046,-0.1290282
0.7525000,0.7525000,0.7525000,-0.0555052,-0.0013095,-0.5939541,-0.0555052,-0.0473629,-0.1264385
0.7550000,0.7550000,0.7550000,-0.0543967,-0.0012971,-0.5880061,-0.0543967,-0.0464428,-0.1239085
0.7575000,0.7575000,0.7575000,-0.0533139,-0.0012848,-0.5821372,-0.0533139,-0.0455437,-0.1214365
0.7600000,0.7600000,0.7600000,-0.0522561,-0.0012727,-0.5763461,-0.0522561,-0.0446652,-0.1190211
0.7625000,0.7625000,0.7625000,-0.0512226,-0.0012607,-0.5706317,-0.0512226,-0.0438067,-0.1166608
0.7650000,0.7650000,0.7650000,-0.0502128,-0.0012488,-0.5649926,-0.0502128,-0.0429676,-0.1143543
0.7675000,0.7675000,0.7675000,-0.0492261,-0.0012371,-0.5594276,-0.0492261,-0.0421475,-0.1121000
0.7700000,0.7700000,0.7700000,-0.0482619,-0.0012255,-0.5539355,-0.0482619,-0.0413458,-0.1098968
0.7725000,0.7725000,0.7725000,-0.0473195,-0.0012141,-0.5485151,-0.0473195,-0.0405621,-0.1077434
0.7750000,0.7750000,0.7750000,-0.0463985,-0.0012028,-0.5431652,-0.0463985,-0.0397960,-0.1056384
0.7775000,0.7775000,0.7775000,-0.0454983,-0.0011916,-0.5378847,-0.0454983,-0.0390470,-0.1035806
0.7800000,0.7800000,0.7800000,-0.0446184,-0.0011805,-0.5326725,-0.0446184,-0.0383146,-0.1015689
0.7825000,0.7825000,0.7825000,-0.0437582,-0.0011696,-0.5275274,-0.0437582,-0.0375984,-0.0996021
0.7850000,0.7850000,0.7850000,-0.0429173,-0.0011587,-0.5224485,-0.0429173,-0.0368981,-0.0976791
0.7875000,0.7875000,0.7875000,-0.0420951,-0.0011481,-0.5174346,-0.0420951,-0.0362131,-0.0957987
0.7900000,0.7900000,0.7900000,-0.0412911,-0.0011375,-0.5124847,-0.0412911,-0.0355433,-0.0939600
0.7925000,0.7925000,0.7925000,-0.0405051,-0.0011270,-0.5075978,-0.0405051,-0.0348880,-0.0921619
0.7950000,0.7950000,0.7950000,-0.0397363,-0.0011167,-0.5027728,-0.0397363,-0.0342471,-0.0904033
0.7975000,0.7975000,0.7975000,-0.0389846,-0.0011065,-0.4980089,-0.0389846,-0.0336200,-0.0886834
0.8000000,0.8000000,0.8000000,-0.0382493,-0.0010964,-0.4933051,-0.0382493,-0.0330066,-0.0870010
0.8025000,0.8025000,0.8025000,-0.0375301,-0.0010864,-0.4886603,-0.0375301,-0.0324064,-0.0853555
0.8050000,0.8050000,0.8050000,-0.0368267,-0.0010766,-0.4840737,-0.0368267,-0.0318191,-0.0837457
0.8075000,0.8075000,0.8075000,-0.0361385,-0.0010668,-0.4795445,-0.0361385,-0.0312444,-0.0821708
0.8100000,0.8100000,0.8100000,-0.0354653,-0.0010572,-0.4750716,-0.0354653,-0.0306821,-0.0806301
0.8125000,0.8125000,0.8125000,-0.0348066,-0.0010477,-0.4706542,-0.0348066,-0.0301317,-0.0791226
0.8150000,0.8150000,0.8150000,-0.0341622,-0.0010382,-0.4662914,-0.0341622,-0.0295930,-0.0776475
0.8175000,0.8175000,0.8175000,-0.0335316,-0.0010289,-0.4619825,-0.0335316,-0.0290657,-0.0762041
0.8200000,0.8200000,0.8200000,-0.0329146,-0.0010197,-0.4577266,-0.0329146,-0.0285495,-0.0747916
0.8225000,0.8225000,0.8225000,-0.0323107,-0.0010106,-0.4535228,-0.0323107,-0.0280443,-0.0734093
0.8250000,0.8250000,0.8250000,-0.0317197,-0.0010016,-0.4493704,-0.0317197,-0.0275496,-0.0720564
0.8275000,0.8275000,0.8275000,-0.0311413,-0.0009927,-0.4452686,-0.0311413,-0.0270653,-0.0707322
0.8300000,0.8300000,0.8300000,-0.0305751,-0.0009839,-0.4412167,-0.0305751,-0.0265911,-0.0694360
0.8325000,0.8325000,0.8325000,-0.0300209,-0.0009752,-0.4372138,-0.0300209,-0.0261267,-0.0681671
0.8350000,0.8350000,0.8350000,-0.0294784,-0.0009666,-0.4332592,-0.0294784,-0.0256720,-0.0669250
0.8375000,0.8375000,0.8375000,-0.0289473,-0.0009581,-0.4293523,-0.0289473,-0.0252266,-0.0657090
0.8400000,0.8400000,0.8400000,-0.0284273,-0.0009497,-0.4254922,-0.0284273,-0.0247905,-0.0645184
0.8425000,0.8425000,0.8425000,-0.0279181,-0.0009414,-0.4216783,-0.0279181,-0.0243632,-0.0633527
0.8450000,0.8450000,0.8450000,-0.0274196,-0.0009331,-0.4179100,-0.0274196,-0.0239448,-0.0622112
0.8475000,0.8475000,0.8475000,-0.0269314,-0.0009250,-0.4141864,-0.0269314,-0.0235349,-0.0610934
0.8500000,0.8500000,0.8500000,-0.0264533,-0.0009170,-0.4105070,-0.0264533,-0.0231333,-0.0599988
0.8525000,0.8525000,0.8525000,-0.0259851,-0.0009090,-0.4068712,-0.0259851,-0.0227398,-0.0589268
0.8550000,0.8550000,0.8550000,-0.0255265,-0.0009012,-0.4032781,-0.0255265,-0.0223543,-0.0578768
0.8575000,0.8575000,0.8575000,-0.0250773,-0.0008934,-0.3997274,-0.0250773,-0.0219766,-0.0568484
0.8600000,0.8600000,0.8600000,-0.0246374,-0.0008857,-0.3962182,-0.0246374,-0.0216065,-0.0558411
0.8625000,0.8625000,0.8625000,-0.0242064,-0.0008781,-0.3927501,-0.0242064,-0.0212438,-0.0548543
0.8650000,0.8650000,0.8650000,-0.0237841,-0.0008706,-0.3893223,-0.0237841,-0.0208884,-0.0538877
0.8675000,0.8675000,0.8675000,-0.0233705,-0.0008631,-0.3859344,-0.0233705,-0.0205400,-0.0529406
0.8700000,0.8700000,0.8700000,-0.0229652,-0.0008558,-0.3825858,-0.0229652,-0.0201985,-0.0520128
0.8725000,0.8725000,0.8725000,-0.0225681,-0.0008485,-0.3792758,-0.0225681,-0.0198638,-0.0511037
0.8750000,0.8750000,0.8750000,-0.0221789,-0.0008413,-0.3760040,-0.0221789,-0.0195357,-0.0502129
0.8775000,0.8775000,0.8775000,-0.0217976,-0.0008342,-0.3727697,-0.0217976,-0.0192141,-0.0493400
0.8800000,0.8800000,0.8800000,-0.0214239,-0.0008272,-0.3695724,-0.0214239,-0.0188987,-0.0484846
0.8825000,0.8825000,0.8825000,-0.0210577,-0.0008202,-0.3664117,-0.0210577,-0.0185896,-0.0476462
0.8850000,0.8850000,0.8850000,-0.0206987,-0.0008133,-0.3632870,-0.0206987,-0.0182864,-0.0468246
0.8875000,0.8875000,0.8875000,-0.0203469,-0.0008065,-0.3601977,-0.0203469,-0.0179892,-0.0460193
0.8900000,0.8900000,0.8900000,-0.0200020,-0.0007998,-0.3571434,-0.0200020,-0.0176977,-0.0452300
0.8925000,0.8925000,0.8925000,-0.0196639,-0.0007931,-0.3541236,-0.0196639,-0.0174118,-0.0444563
0.8950000,0.8950000,0.8950000,-0.0193325,-0.0007865,-0.3511378,-0.0193325,-0.0171315,-0.0436979
0.8975000,0.8975000,0.8975000,-0.0190075,-0.0007800,-0.3481856,-0.0190075,-0.0168565,-0.0429543
0.9000000,0.9000000,0.9000000,-0.0186890,-0.0007735,-0.3452663,-0.0186890,-0.0165868,-0.0422253
0.9025000,0.9025000,0.9025000,-0.0183766,-0.0007672,-0.3423797,-0.0183766,-0.0163223,-0.0415106
0.9050000,0.9050000,0.9050000,-0.0180703,-0.0007609,-0.3395252,-0.0180703,-0.0160628,-0.0408099
0.9075000,0.9075000,0.9075000,-0.0177700,-0.0007546,-0.3367024,-0.0177700,-0.0158082,-0.0401228
0.9100000,0.9100000,0.9100000,-0.0174755,-0.0007484,-0.3339108,-0.0174755,-0.0155585,-0.0394490
0.9125000,0.9125000,0.9125000,-0.0171866,-0.0007423,-0.3311501,-0.0171866,-0.0153134,-0.0387882
0.9150000,0.9150000,0.9150000,-0.0169033,-0.0007363,-0.3284197,-0.0169033,-0.0150730,-0.0381402
0.9175000,0.9175000,0.9175000,-0.0166254,-0.0007303,-0.3257193,-0.0166254,-0.0148371,-0.0375047
0.9200000,0.9200000,0.9200000,-0.0163529,-0.0007244,-0.3230485,-0.0163529,-0.0146056,-0.0368814
0.9225000,0.9225000,0.9225000,-0.0160856,-0.0007185,-0.3204069,-0.0160856,-0.0143784,-0.0362700
0.9250000,0.9250000,0.9250000,-0.0158233,-0.0007127,-0.3177940,-0.0158233,-0.0141554,-0.0356703
0.9275000,0.9275000,0.9275000,-0.0155660,-0.0007070,-0.3152095,-0.0155660,-0.0139366,-0.0350820
0.9300000,0.9300000,0.9300000,-0.0153136,-0.0007013,-0.3126530,-0.0153136,-0.0137218,-0.0345049
0.9325000,0.9325000,0.9325000,-0.0150660,-0.0006957,-0.3101241,-0.0150660,-0.0135110,-0.0339388
0.9350000,0.9350000,0.9350000,-0.0148230,-0.0006901,-0.3076224,-0.0148230,-0.0133041,-0.0333833
0.9375000,0.9375000,0.9375000,-0.0145846,-0.0006846,-0.3051476,-0.0145846,-0.0131010,-0.0328383
0.9400000,0.9400000,0.9400000,-0.0143506,-0.0006792,-0.3026994,-0.0143506,-0.0129015,-0.0323036
0.9425000,0.9425000,0.9425000,-0.0141210,-0.0006738,-0.3002773,-0.0141210,-0.0127057,-0.0317789
0.9450000,0.9450000,0.9450000,-0.0138957,-0.0006685,-0.2978810,-0.0138957,-0.0125135,-0.0312640
0.9475000,0.9475000,0.9475000,-0.0136746,-0.0006632,-0.2955101,-0.0136746,-0.0123248,-0.0307588
0.9500000,0.9500000,0.9500000,-0.0134576,-0.0006580,-0.2931644,-0.0134576,-0.0121394,-0.0302629
0.9525000,0.9525000,0.9525000,-0.0132446,-0.0006528,-0.2908435,-0.0132446,-0.0119574,-0.0297763
0.9550000,0.9550000,0.9550000,-0.0130355,-0.0006477,-0.2885471,-0.0130355,-0.0117787,-0.0292986
0.9575000,0.9575000,0.9575000,-0.0128302,-0.0006427,-0.2862748,-0.0128302,-0.0116032,-0.0288298
0.9600000,0.9600000,0.9600000,-0.0126288,-0.0006377,-0.2840263,-0.0126288,-0.0114308,-0.0283696
0.9625000,0.9625000,0.9625000,-0.0124310,-0.0006327,-0.2818014,-0.0124310,-0.0112615,-0.0279179
0.9650000,0.9650000,0.9650000,-0.0122368,-0.0006278,-0.2795997,-0.0122368,-0.0110952,-0.0274745
0.9675000,0.9675000,0.9675000,-0.0120461,-0.0006229,-0.2774208,-0.0120461,-0.0109319,-0.0270392
0.9700000,0.9700000,0.9700000,-0.0118589,-0.0006181,-0.2752646,-0.0118589,-0.0107714,-0.0266118
0.9725000,0.9725000,0.9725000,-0.0116751,-0.0006134,-0.2731307,-0.0116751,-0.0106138,-0.0261922
0.9750000,0.9750000,0.9750000,-0.0114946,-0.0006087,-0.2710189,-0.0114946,-0.0104589,-0.0257802
0.9775000,0.9775000,0.9775000,-0.0113174,-0.0006040,-0.2689288,-0.0113174,-0.0103067,-0.0253757
0.9800000,0.9800000,0.9800000,-0.0111433,-0.0005994,-0.2668602,-0.0111433,-0.0101573,-0.0249785
0.9825000,0.9825000,0.9825000,-0.0109724,-0.0005948,-0.2648127,-0.0109724,-0.0100104,-0.0245884
0.9850000,0.9850000,0.9850000,-0.0108045,-0.0005903,-0.2627862,-0.0108045,-0.0098660,-0.0242054
0.9875000,0.9875000,0.9875000,-0.0106396,-0.0005858,-0.2607803,-0.0106396,-0.0097242,-0.0238292
0.9900000,0.9900000,0.9900000,-0.0104776,-0.0005814,-0.2587949,-0.0104776,-0.0095848,-0.0234597
0.9925000,0.9925000,0.9925000,-0.0103185,-0.0005770,-0.2568295,-0.0103185,-0.0094479,-0.0230969
0.9950000,0.9950000,0.9950000,-0.0101622,-0.0005727,-0.2548841,-0.0101622,-0.0093132,-0.0227405
0.9975000,0.9975000,0.9975000,-0.0100087,-0.0005684,-0.2529582,-0.0100087,-0.0091809,-0.0223904
1.0000000,1.0000000,1.0000000,-0.0098579,-0.0005641,-0.2510518,-0.0098579,-0.0090509,-0.0220466
1.0025000,1.0025000,1.0025000,-0.0097097,-0.0005599,-0.2491645,-0.0097097,-0.0089231,-0.0217088
1.0050000,1.0050000,1.0050000,-0.0095641,-0.0005557,-0.2472960,-0.0095641,-0.0087974,-0.0213769
1.0075000,1.0075000,1.0075000,-0.0094211,-0.0005516,-0.2454463,-0.0094211,-0.0086739,-0.0210509
1.0100000,1.0100000,1.0100000,-0.0092805,-0.0005475,-0.2436150,-0.0092805,-0.0085525,-0.0207307
1.0125000,1.0125000,1.0125000,-0.0091424,-0.0005434,-0.2418018,-0.0091424,-0.0084331,-0.0204160
1.0150000,1.0150000,1.0150000,-0.0090067,-0.0005394,-0.2400067,-0.0090067,-0.0083157,-0.0201068
1.0175000,1.0175000,1.0175000,-0.0088734,-0.0005354,-0.2382293,-0.0088734,-0.0082003,-0.0198030
1.0200000,1.0200000,1.0200000,-0.0087423,-0.0005315,-0.2364694,-0.0087423,-0.0080868,-0.0195045
1.0225000,1.0225000,1.0225000,-0.0086135,-0.0005276,-0.2347269,-0.0086135,-0.0079752,-0.0192111
1.0250000,1.0250000,1.0250000,-0.0084869,-0.0005237,-0.2330014,-0.0084869,-0.0078655,-0.0189229
1.0275000,1.0275000,1.0275000,-0.0083625,-0.0005199,-0.2312929,-0.0083625,-0.0077576,-0.0186396
1.0300000,1.0300000,1.0300000,-0.0082401,-0.0005161,-0.2296010,-0.0082401,-0.0076515,-0.0183612
1.0325000,1.0325000,1.0325000,-0.0081199,-0.0005124,-0.2279256,-0.0081199,-0.0075472,-0.0180875
1.0350000,1.0350000,1.0350000,-0.0080017,-0.0005087,-0.2262665,-0.0080017,-0.0074445,-0.0178186
1.0375000,1.0375000,1.0375000,-0.0078856,-0.0005050,-0.2246235,-0.0078856,-0.0073436,-0.0175542
1.0400000,1.0400000,1.0400000,-0.0077714,-0.0005013,-0.2229964,-0.0077714,-0.0072443,-0.0172944
1.0425000,1.0425000,1.0425000,-0.0076591,-0.0004977,-0.2213850,-0.0076591,-0.0071466,-0.0170389
1.0450000,1.0450000,1.0450000,-0.0075487,-0.0004942,-0.2197891,-0.0075487,-0.0070505,-0.0167878
1.0475000,1.0475000,1.0475000,-0.0074401,-0.0004906,-0.2182085,-0.0074401,-0.0069560,-0.0165410
1.0500000,1.0500000,1.0500000,-0.0073334,-0.0004871,-0.2166430,-0.0073334,-0.0068630,-0.0162983
1.0525000,1.0525000,1.0525000,-0.0072285,-0.0004836,-0.2150925,-0.0072285,-0.0067715,-0.0160598
1.0550000,1.0550000,1.0550000,-0.0071253,-0.0004802,-0.2135568,-0.0071253,-0.0066815,-0.0158252
1.0575000,1.0575000,1.0575000,-0.0070238,-0.0004768,-0.2120357,-0.0070238,-0.0065929,-0.0155946
1.0600000,1.0600000,1.0600000,-0.0069240,-0.0004734,-0.2105291,-0.0069240,-0.0065058,-0.0153678
1.0625000,1.0625000,1.0625000,-0.0068259,-0.0004701,-0.2090367,-0.0068259,-0.0064200,-0.0151448
1.0650000,1.0650000,1.0650000,-0.0067294,-0.0004667,-0.2075583,-0.0067294,-0.0063356,-0.0149255
1.0675000,1.0675000,1.0675000,-0.0066344,-0.0004635,-0.2060939,-0.0066344,-0.0062526,-0.0147099
1.0700000,1.0700000,1.0700000,-0.0065411,-0.0004602,-0.2046433,-0.0065411,-0.0061709,-0.0144979
1.0725000,1.0725000,1.0725000,-0.0064492,-0.0004570,-0.2032063,-0.0064492,-0.0060904,-0.0142893
1.0750000,1.0750000,1.0750000,-0.0063589,-0.0004538,-0.2017827,-0.0063589,-0.0060113,-0.0140842
1.0775000,1.0775000,1.0775000,-0.0062700,-0.0004506,-0.2003724,-0.0062700,-0.0059334,-0.0138825
1.0800000,1.0800000,1.0800000,-0.0061826,-0.0004475,-0.1989752,-0.0061826,-0.0058567,-0.0136841
1.0825000,1.0825000,1.0825000,-0.0060966,-0.0004444,-0.1975911,-0.0060966,-0.0057812,-0.0134889
1.0850000,1.0850000,1.0850000,-0.0060120,-0.0004413,-0.1962197,-0.0060120,-0.0057069,-0.0132970
1.0875000,1.0875000,1.0875000,-0.0059288,-0.0004383,-0.1948610,-0.0059288,-0.0056338,-0.0131082
1.0900000,1.0900000,1.0900000,-0.0058469,-0.0004353,-0.1935148,-0.0058469,-0.0055618,-0.0129224
1.0925000,1.0925000,1.0925000,-0.0057663,-0.0004323,-0.1921811,-0.0057663,-0.0054909,-0.0127397
1.0950000,1.0950000,1.0950000,-0.0056871,-0.0004293,-0.1908596,-0.0056871,-0.0054211,-0.0125599
1.0975000,1.0975000,1.0975000,-0.0056091,-0.0004264,-0.1895501,-0.0056091,-0.0053524,-0.0123831
1.1000000,1.1000000,1.1000000,-0.0055323,-0.0004234,-0.1882527,-0.0055323,-0.0052847,-0.0122091
1.1025000,1.1025000,1.1025000,-0.0054568,-0.0004206,-0.1869671,-0.0054568,-0.0052181,-0.0120379
1.1050000,1.1050000,1.1050000,-0.0053824,-0.0004177,-0.1856931,-0.0053824,-0.0051525,-0.0118694
1.1075000,1.1075000,1.1075000,-0.0053093,-0.0004149,-0.1844308,-0.0053093,-0.0050879,-0.0117037
1.1100000,1.1100000,1.1100000,-0.0052373,-0.0004121,-0.1831798,-0.0052373,-0.0050243,-0.0115406
1.1125000,1.1125000,1.1125000,-0.0051664,-0.0004093,-0.1819402,-0.0051664,-0.0049617,-0.0113801
1.1150000,1.1150000,1.1150000,-0.0050967,-0.0004065,-0.1807118,-0.0050967,-0.0049000,-0.0112222
1.1175000,1.1175000,1.1175000,-0.0050280,-0.0004038,-0.1794944,-0.0050280,-0.0048393,-0.0110668
1.1200000,1.1200000,1.1200000,-0.0049605,-0.0004011,-0.1782879,-0.0049605,-0.0047794,-0.0109138
1.1225000,1.1225000,1.1225000,-0.0048939,-0.0003984,-0.1770922,-0.0048939,-0.0047205,-0.0107633
1.1250000,1.1250000,1.1250000,-0.0048285,-0.0003957,-0.1759072,-0.0048285,-0.0046624,-0.0106152
1.1275000,1.1275000,1.1275000,-0.0047640,-0.0003931,-0.1747328,-0.0047640,-0.0046052,-0.0104694
1.1300000,1.1300000,1.1300000,-0.0047006,-0.0003905,-0.1735688,-0.0047006,-0.0045489,-0.0103258
1.1325000,1.1325000,1.1325000,-0.0046381,-0.0003879,-0.1724151,-0.0046381,-0.0044934,-0.0101846
1.1350000,1.1350000,1.1350000,-0.0045766,-0.0003853,-0.1712717,-0.0045766,-0.0044388,-0.0100455
1.1375000,1.1375000,1.1375000,-0.0045161,-0.0003828,-0.1701383,-0.0045161,-0.0043849,-0.0099086
1.1400000,1.1400000,1.1400000,-0.0044565,-0.0003802,-0.1690150,-0.0044565,-0.0043319,-0.0097739
1.1425000,1.1425000,1.1425000,-0.0043978,-0.0003777,-0.1679015,-0.0043978,-0.0042796,-0.0096412
1.1450000,1.1450000,1.1450000,-0.0043400,-0.0003753,-0.1667978,-0.0043400,-0.0042281,-0.0095107
1.1475000,1.1475000,1.1475000,-0.0042831,-0.0003728,-0.1657038,-0.0042831,-0.0041773,-0.0093821
1.1500000,1.1500000,1.1500000,-0.0042270,-0.0003704,-0.1646193,-0.0042270,-0.0041273,-0.0092555
1.1525000,1.1525000,1.1525000,-0.0041718,-0.0003680,-0.1635443,-0.0041718,-0.0040781,-0.0091309
1.1550000,1.1550000,1.1550000,-0.0041175,-0.0003656,-0.1624786,-0.0041175,-0.0040295,-0.0090082
1.1575000,1.1575000,1.1575000,-0.0040640,-0.0003632,-0.1614222,-0.0040640,-0.0039817,-0.0088874
1.1600000,1.1600000,1.1600000,-0.0040112,-0.0003608,-0.1603749,-0.0040112,-0.0039345,-0.0087684
1.1625000,1.1625000,1.1625000,-0.0039593,-0.0003585,-0.1593367,-0.0039593,-0.0038880,-0.0086513
1.1650000,1.1650000,1.1650000,-0.0039082,-0.0003562,-0.1583074,-0.0039082,-0.0038422,-0.0085359
1.1675000,1.1675000,1.1675000,-0.0038578,-0.0003539,-0.1572870,-0.0038578,-0.0037971,-0.0084223
1.1700000,1.1700000,1.1700000,-0.0038082,-0.0003516,-0.1562754,-0.0038082,-0.0037526,-0.0083104
1.1725000,1.1725000,1.1725000,-0.0037594,-0.0003494,-0.1552724,-0.0037594,-0.0037088,-0.0082003
1.1750000,1.1750000,1.1750000,-0.0037112,-0.0003471,-0.1542780,-0.0037112,-0.0036655,-0.0080918
1.1775000,1.1775000,1.1775000,-0.0036638,-0.0003449,-0.1532921,-0.0036638,-0.0036229,-0.0079849
1.1800000,1.1800000,1.1800000,-0.0036171,-0.0003427,-0.1523146,-0.0036171,-0.0035809,-0.0078797
1.1825000,1.1825000,1.1825000,-0.0035711,-0.0003405,-0.1513453,-0.0035711,-0.0035395,-0.0077760
1.1850000,1.1850000,1.1850000,-0.0035258,-0.0003384,-0.1503843,-0.0035258,-0.0034987,-0.0076739
1.1875000,1.1875000,1.1875000,-0.0034811,-0.0003362,-0.1494315,-0.0034811,-0.0034585,-0.0075733
1.1900000,1.1900000,1.1900000,-0.0034371,-0.0003341,-0.1484866,-0.0034371,-0.0034188,-0.0074742
1.1925000,1.1925000,1.1925000,-0.0033938,-0.0003320,-0.1475497,-0.0033938,-0.0033797,-0.0073767
1.1950000,1.1950000,1.1950000,-0.0033510,-0.0003299,-0.1466207,-0.0033510,-0.0033411,-0.0072805
1.1975000,1.1975000,1.1975000,-0.0033089,-0.0003278,-0.1456995,-0.0033089,-0.0033031,-0.0071858
1.2000000,1.2000000,1.2000000,-0.0032675,-0.0003258,-0.1447860,-0.0032675,-0.0032656,-0.0070925
1.2025000,1.2025000,1.2025000,-0.0032266,-0.0003237,-0.1438802,-0.0032266,-0.0032286,-0.0070006
1.2050000,1.2050000,1.2050000,-0.0031863,-0.0003217,-0.1429818,-0.0031863,-0.0031922,-0.0069100
1.2075000,1.2075000,1.2075000,-0.0031466,-0.0003197,-0.1420910,-0.0031466,-0.0031562,-0.0068208
1.2100000,1.2100000,1.2100000,-0.0031075,-0.0003177,-0.1412075,-0.0031075,-0.0031208,-0.0067329
1.2125000,1.2125000,1.2125000,-0.0030690,-0.0003158,-0.1403314,-0.0030690,-0.0030858,-0.0066463
1.2150000,1.2150000,1.2150000,-0.0030310,-0.0003138,-0.1394625,-0.0030310,-0.0030513,-0.0065609
1.2175000,1.2175000,1.2175000,-0.0029936,-0.0003119,-0.1386008,-0.0029936,-0.0030173,-0.0064768
1.2200000,1.2200000,1.2200000,-0.0029567,-0.0003099,-0.1377461,-0.0029567,-0.0029837,-0.0063940
1.2225000,1.2225000,1.2225000,-0.0029203,-0.0003080,-0.1368985,-0.0029203,-0.0029507,-0.0063123
1.2250000,1.2250000,1.2250000,-0.0028844,-0.0003062,-0.1360579,-0.0028844,-0.0029180,-0.0062318
1.2275000,1.2275000,1.2275000,-0.0028491,-0.0003043,-0.1352241,-0.0028491,-0.0028858,-0.0061525
1.2300000,1.2300000,1.2300000,-0.0028143,-0.0003024,-0.1343971,-0.0028143,-0.0028541,-0.0060744
1.2325000,1.2325000,1.2325000,-0.0027799,-0.0003006,-0.1335768,-0.0027799,-0.0028228,-0.0059974
1.2350000,1.2350000,1.2350000,-0.0027461,-0.0002987,-0.1327633,-0.0027461,-0.0027919,-0.0059215
1.2375000,1.2375000,1.2375000,-0.0027127,-0.0002969,-0.1319563,-0.0027127,-0.0027614,-0.0058466
1.2400000,1.2400000,1.2400000,-0.0026798,-0.0002951,-0.1311559,-0.0026798,-0.0027313,-0.0057729
1.2425000,1.2425000,1.2425000,-0.0026474,-0.0002933,-0.1303619,-0.0026474,-0.0027016,-0.0057002
1.2450000,1.2450000,1.2450000,-0.0026154,-0.0002916,-0.1295743,-0.0026154,-0.0026724,-0.0056286
1.2475000,1.2475000,1.2475000,-0.0025839,-0.0002898,-0.1287931,-0.0025839,-0.0026435,-0.0055580
1.2500000,1.2500000,1.2500000,-0.0025528,-0.0002881,-0.1280181,-0.0025528,-0.0026150,-0.0054884
1.2525000,1.2525000,1.2525000,-0.0025222,-0.0002863,-0.1272494,-0.0025222,-0.0025869,-0.0054197
1.2550000,1.2550000,1.2550000,-0.0024920,-0.0002846,-0.1264868,-0.0024920,-0.0025591,-0.0053521
1.2575000,1.2575000,1.2575000,-0.0024622,-0.0002829,-0.1257303,-0.0024622,-0.0025317,-0.0052854
1.2600000,1.2600000,1.2600000,-0.0024328,-0.0002812,-0.1249798,-0.0024328,-0.0025047,-0.0052197
1.2625000,1.2625000,1.2625000,-0.0024038,-0.0002796,-0.1242353,-0.0024038,-0.0024781,-0.0051549
1.2650000,1.2650000,1.2650000,-0.0023753,-0.0002779,-0.1234967,-0.0023753,-0.0024518,-0.0050910
1.2675000,1.2675000,1.2675000,-0.0023471,-0.0002762,-0.1227639,-0.0023471,-0.0024258,-0.0050280
1.2700000,1.2700000,1.2700000,-0.0023193,-0.0002746,-0.1220370,-0.0023193,-0.0024002,-0.0049659
1.2725000,1.2725000,1.2725000,-0.0022919,-0.0002730,-0.1213157,-0.0022919,-0.0023749,-0.0049047
1.2750000,1.2750000,1.2750000,-0.0022649,-0.0002714,-0.1206002,-0.0022649,-0.0023499,-0.0048443
1.2775000,1.2775000,1.2775000,-0.0022382,-0.0002698,-0.1198903,-0.0022382,-0.0023253,-0.0047848
1.2800000,1.2800000,1.2800000,-0.0022120,-0.0002682,-0.1191859,-0.0022120,-0.0023010,-0.0047261
1.2825000,1.2825000,1.2825000,-0.0021860,-0.0002666,-0.1184871,-0.0021860,-0.0022770,-0.0046682
1.2850000,1.2850000,1.2850000,-0.0021605,-0.0002651,-0.1177937,-0.0021605,-0.0022533,-0.0046111
1.2875000,1.2875000,1.2875000,-0.0021352,-0.0002635,-0.1171057,-0.0021352,-0.0022299,-0.0045548
1.2900000,1.2900000,1.2900000,-0.0021104,-0.0002620,-0.1164231,-0.0021104,-0.0022068,-0.0044993
1.2925000,1.2925000,1.2925000,-0.0020858,-0.0002604,-0.1157457,-0.0020858,-0.0021840,-0.0044446
1.2950000,1.2950000,1.2950000,-0.0020616,-0.0002589,-0.1150736,-0.0020616,-0.0021615,-0.0043906
1.2975000,1.2975000,1.2975000,-0.0020377,-0.0002574,-0.1144068,-0.0020377,-0.0021393,-0.0043373
1.3000000,1.3000000,1.3000000,-0.0020142,-0.0002559,-0.1137450,-0.0020142,-0.0021174,-0.0042848
1.3025000,1.3025000,1.3025000,-0.0019909,-0.0002545,-0.1130884,-0.0019909,-0.0020957,-0.0042330
1.3050000,1.3050000,1.3050000,-0.0019680,-0.0002530,-0.1124368,-0.0019680,-0.0020744,-0.0041820
1.3075000,1.3075000,1.3075000,-0.0019454,-0.0002515,-0.1117902,-0.0019454,-0.0020533,-0.0041316
1.3100000,1.3100000,1.3100000,-0.0019231,-0.0002501,-0.1111486,-0.0019231,-0.0020324,-0.0040819
1.3125000,1.3125000,1.3125000,-0.0019010,-0.0002487,-0.1105119,-0.0019010,-0.0020119,-0.0040329
1.3150000,1.3150000,1.3150000,-0.0018793,-0.0002472,-0.1098800,-0.0018793,-0.0019915,-0.0039845
1.3175000,1.3175000,1.3175000,-0.0018579,-0.0002458,-0.1092530,-0.0018579,-0.0019715,-0.0039368
1.3200000,1.3200000,1.3200000,-0.0018367,-0.0002444,-0.1086307,-0.0018367,-0.0019517,-0.0038898
1.3225000,1.3225000,1.3225000,-0.0018158,-0.0002430,-0.1080131,-0.0018158,-0.0019321,-0.0038434
1.3250000,1.3250000,1.3250000,-0.0017952,-0.0002417,-0.1074002,-0.0017952,-0.0019128,-0.0037976
1.3275000,1.3275000,1.3275000,-0.0017749,-0.0002403,-0.1067920,-0.0017749,-0.0018937,-0.0037524
1.3300000,1.3300000,1.3300000,-0.0017549,-0.0002389,-0.1061883,-0.0017549,-0.0018749,-0.0037079
1.3325000,1.3325000,1.3325000,-0.0017351,-0.0002376,-0.1055892,-0.0017351,-0.0018563,-0.0036639
1.3350000,1.3350000,1.3350000,-0.0017156,-0.0002363,-0.1049946,-0.0017156,-0.0018379,-0.0036206
1.3375000,1.3375000,1.3375000,-0.0016963,-0.0002349,-0.1044044,-0.0016963,-0.0018197,-0.0035778
1.3400000,1.3400000,1.3400000,-0.0016773,-0.0002336,-0.1038187,-0.0016773,-0.0018018,-0.0035356
1.3425000,1.3425000,1.3425000,-0.0016585,-0.0002323,-0.1032373,-0.0016585,-0.0017841,-0.0034939
1.3450000,1.3450000,1.3450000,-0.0016400,-0.0002310,-0.1026603,-0.0016400,-0.0017666,-0.0034528
1.3475000,1.3475000,1.3475000,-0.0016217,-0.0002297,-0.1020876,-0.0016217,-0.0017493,-0.0034123
1.3500000,1.3500000,1.3500000,-0.0016036,-0.0002284,-0.1015191,-0.0016036,-0.0017323,-0.0033722
1.3525000,1.3525000,1.3525000,-0.0015858,-0.0002272,-0.1009549,-0.0015858,-0.0017154,-0.0033328
1.3550000,1.3550000,1.3550000,-0.0015682,-0.0002259,-0.1003948,-0.0015682,-0.0016988,-0.0032938
1.3575000,1.3575000,1.3575000,-0.0015509,-0.0002246,-0.0998389,-0.0015509,-0.0016823,-0.0032554
1.3600000,1.3600000,1.3600000,-0.0015337,-0.0002234,-0.0992870,-0.0015337,-0.0016661,-0.0032174
1.3625000,1.3625000,1.3625000,-0.0015168,-0.0002222,-0.0987393,-0.0015168,-0.0016500,-0.0031800
1.3650000,1.3650000,1.3650000,-0.0015001,-0.0002209,-0.0981955,-0.0015001,-0.0016341,-0.0031430
1.3675000,1.3675000,1.3675000,-0.0014836,-0.0002197,-0.0976558,-0.0014836,-0.0016185,-0.0031066
1.3700000,1.3700000,1.3700000,-0.0014674,-0.0002185,-0.0971200,-0.0014674,-0.0016030,-0.0030706
1.3725000,1.3725000,1.3725000,-0.0014513,-0.0002173,-0.0965881,-0.0014513,-0.0015877,-0.0030351
1.3750000,1.3750000,1.3750000,-0.0014355,-0.0002161,-0.0960601,-0.0014355,-0.0015726,-0.0030000
1.3775000,1.3775000,1.3775000,-0.0014198,-0.0002150,-0.0955359,-0.0014198,-0.0015576,-0.0029654
1.3800000,1.3800000,1.3800000,-0.0014043,-0.0002138,-0.0950156,-0.0014043,-0.0015429,-0.0029313
1.3825000,1.3825000,1.3825000,-0.0013891,-0.0002126,-0.0944990,-0.0013891,-0.0015283,-0.0028975
1.3850000,1.3850000,1.3850000,-0.0013740,-0.0002115,-0.0939862,-0.0013740,-0.0015139,-0.0028643
1.3875000,1.3875000,1.3875000,-0.0013591,-0.0002103,-0.0934771,-0.0013591,-0.0014996,-0.0028314
1.3900000,1.3900000,1.3900000,-0.0013444,-0.0002092,-0.0929716,-0.0013444,-0.0014855,-0.0027990
1.3925000,1.3925000,1.3925000,-0.0013299,-0.0002081,-0.0924698,-0.0013299,-0.0014716,-0.0027670
1.3950000,1.3950000,1.3950000,-0.0013156,-0.0002069,-0.0919716,-0.0013156,-0.0014579,-0.0027354
1.3975000,1.3975000,1.3975000,-0.0013015,-0.0002058,-0.0914770,-0.0013015,-0.0014443,-0.0027043
1.4000000,1.4000000,1.4000000,-0.0012875,-0.0002047,-0.0909859,-0.0012875,-0.0014309,-0.0026735
1.4025000,1.4025000,1.4025000,-0.0012737,-0.0002036,-0.0904983,-0.0012737,-0.0014176,-0.0026431
1.4050000,1.4050000,1.4050000,-0.0012601,-0.0002025,-0.0900142,-0.0012601,-0.0014045,-0.0026131
1.4075000,1.4075000,1.4075000,-0.0012467,-0.0002014,-0.0895336,-0.0012467,-0.0013915,-0.0025835
1.4100000,1.4100000,1.4100000,-0.0012334,-0.0002004,-0.0890564,-0.0012334,-0.0013787,-0.0025543
1.4125000,1.4125000,1.4125000,-0.0012203,-0.0001993,-0.0885825,-0.0012203,-0.0013660,-0.0025254
1.4150000,1.4150000,1.4150000,-0.0012073,-0.0001982,-0.0881121,-0.0012073,-0.0013535,-0.0024969
1.4175000,1.4175000,1.4175000,-0.0011945,-0.0001972,-0.0876449,-0.0011945,-0.0013411,-0.0024688
1.4200000,1.4200000,1.4200000,-0.0011819,-0.0001962,-0.0871811,-0.0011819,-0.0013289,-0.0024410
1.4225000,1.4225000,1.4225000,-0.0011694,-0.0001951,-0.0867205,-0.0011694,-0.0013168,-0.0024136
1.4250000,1.4250000,1.4250000,-0.0011571,-0.0001941,-0.0862632,-0.0011571,-0.0013049,-0.0023865
1.4275000,1.4275000,1.4275000,-0.0011449,-0.0001931,-0.0858090,-0.0011449,-0.0012930,-0.0023597
1.4300000,1.4300000,1.4300000,-0.0011329,-0.0001920,-0.0853581,-0.0011329,-0.0012814,-0.0023333
1.4325000,1.4325000,1.4325000,-0.0011210,-0.0001910,-0.0849103,-0.0011210,-0.0012698,-0.0023072
1.4350000,1.4350000,1.4350000,-0.0011093,-0.0001900,-0.0844657,-0.0011093,-0.0012584,-0.0022815
1.4375000,1.4375000,1.4375000,-0.0010977,-0.0001890,-0.0840241,-0.0010977,-0.0012471,-0.0022561
1.4400000,1.4400000,1.4400000,-0.0010862,-0.0001881,-0.0835857,-0.0010862,-0.0012359,-0.0022310
1.4425000,1.4425000,1.4425000,-0.0010749,-0.0001871,-0.0831502,-0.0010749,-0.0012249,-0.0022062
1.4450000,1.4450000,1.4450000,-0.0010637,-0.0001861,-0.0827178,-0.0010637,-0.0012140,-0.0021817
1.4475000,1.4475000,1.4475000,-0.0010527,-0.0001851,-0.0822884,-0.0010527,-0.0012032,-0.0021575
1.4500000,1.4500000,1.4500000,-0.0010418,-0.0001842,-0.0818620,-0.0010418,-0.0011925,-0.0021336
1.4525000,1.4525000,1.4525000,-0.0010310,-0.0001832,-0.0814385,-0.0010310,-0.0011820,-0.0021100
1.4550000,1.4550000,1.4550000,-0.0010204,-0.0001823,-0.0810179,-0.0010204,-0.0011715,-0.0020868
1.4575000,1.4575000,1.4575000,-0.0010099,-0.0001813,-0.0806002,-0.0010099,-0.0011612,-0.0020637
1.4600000,1.4600000,1.4600000,-0.0009995,-0.0001804,-0.0801854,-0.0009995,-0.0011510,-0.0020410
1.4625000,1.4625000,1.4625000,-0.0009892,-0.0001795,-0.0797735,-0.0009892,-0.0011409,-0.0020186
1.4650000,1.4650000,1.4650000,-0.0009791,-0.0001786,-0.0793643,-0.0009791,-0.0011310,-0.0019964
1.4675000,1.4675000,1.4675000,-0.0009691,-0.0001776,-0.0789580,-0.0009691,-0.0011211,-0.0019745
1.4700000,1.4700000,1.4700000,-0.0009592,-0.0001767,-0.0785544,-0.0009592,-0.0011113,-0.0019529
1.4725000,1.4725000,1.4725000,-0.0009494,-0.0001758,-0.0781535,-0.0009494,-0.0011017,-0.0019315
1.4750000,1.4750000,1.4750000,-0.0009397,-0.0001749,-0.0777554,-0.0009397,-0.0010921,-0.0019104
1.4775000,1.4775000,1.4775000,-0.0009302,-0.0001740,-0.0773600,-0.0009302,-0.0010827,-0.0018896
1.4800000,1.4800000,1.4800000,-0.0009207,-0.0001732,-0.0769673,-0.0009207,-0.0010734,-0.0018690
1.4825000,1.4825000,1.4825000,-0.0009114,-0.0001723,-0.0765772,-0.0009114,-0.0010641,-0.0018487
1.4850000,1.4850000,1.4850000,-0.0009022,-0.0001714,-0.0761898,-0.0009022,-0.0010550,-0.0018286
1.4875000,1.4875000,1.4875000,-0.0008931,-0.0001705,-0.0758050,-0.0008931,-0.0010460,-0.0018087
1.4900000,1.4900000,1.4900000,-0.0008841,-0.0001697,-0.0754227,-0.0008841,-0.0010370,-0.0017891
1.4925000,1.4925000,1.4925000,-0.0008752,-0.0001688,-0.0750431,-0.0008752,-0.0010282,-0.0017698
1.4950000,1.4950000,1.4950000,-0.0008664,-0.0001680,-0.0746659,-0.0008664,-0.0010194,-0.0017506
1.4975000,1.4975000,1.4975000,-0.0008577,-0.0001671,-0.0742913,-0.0008577,-0.0010108,-0.0017317
1.5000000,1.5000000,1.5000000,-0.0008491,-0.0001663,-0.0739192,-0.0008491,-0.0010022,-0.0017131
1.5025000,1.5025000,1.5025000,-0.0008406,-0.0001655,-0.0735496,-0.0008406,-0.0009938,-0.0016946
1.5050000,1.5050000,1.5050000,-0.0008323,-0.0001646,-0.0731825,-0.0008323,-0.0009854,-0.0016764
1.5075000,1.5075000,1.5075000,-0.0008240,-0.0001638,-0.0728178,-0.0008240,-0.0009771,-0.0016584
1.5100000,1.5100000,1.5100000,-0.0008158,-0.0001630,-0.0724555,-0.0008158,-0.0009689,-0.0016406
1.5125000,1.5125000,1.5125000,-0.0008077,-0.0001622,-0.0720956,-0.0008077,-0.0009608,-0.0016230
1.5150000,1.5150000,1.5150000,-0.0007997,-0.0001614,-0.0717381,-0.0007997,-0.0009528,-0.0016056
1.5175000,1.5175000,1.5175000,-0.0007918,-0.0001606,-0.0713830,-0.0007918,-0.0009448,-0.0015884
1.5200000,1.5200000,1.5200000,-0.0007839,-0.0001598,-0.0710302,-0.0007839,-0.0009370,-0.0015715
1.5225000,1.5225000,1.5225000,-0.0007762,-0.0001590,-0.0706797,-0.0007762,-0.0009292,-0.0015547
1.5250000,1.5250000,1.5250000,-0.0007686,-0.0001582,-0.0703315,-0.0007686,-0.0009215,-0.0015382
1.5275000,1.5275000,1.5275000,-0.0007610,-0.0001574,-0.0699856,-0.0007610,-0.0009139,-0.0015218
1.5300000,1.5300000,1.5300000,-0.0007536,-0.0001567,-0.0696420,-0.0007536,-0.0009064,-0.0015056
1.5325000,1.5325000,1.5325000,-0.0007462,-0.0001559,-0.0693006,-0.0007462,-0.0008989,-0.0014896
1.5350000,1.5350000,1.5350000,-0.0007389,-0.0001551,-0.0689615,-0.0007389,-0.0008915,-0.0014738
1.5375000,1.5375000,1.5375000,-0.0007317,-0.0001544,-0.0686245,-0.0007317,-0.0008843,-0.0014582
1.5400000,1.5400000,1.5400000,-0.0007245,-0.0001536,-0.0682898,-0.0007245,-0.0008770,-0.0014428
1.5425000,1.5425000,1.5425000,-0.0007175,-0.0001529,-0.0679572,-0.0007175,-0.0008699,-0.0014276
1.5450000,1.5450000,1.5450000,-0.0007105,-0.0001521,-0.0676268,-0.0007105,-0.0008628,-0.0014125
1.5475000,1.5475000,1.5475000,-0.0007036,-0.0001514,-0.0672985,-0.0007036,-0.0008558,-0.0013976
1.5500000,1.5500000,1.5500000,-0.0006968,-0.0001507,-0.0669724,-0.0006968,-0.0008489,-0.0013829
1.5525000,1.5525000,1.5525000,-0.0006901,-0.0001499,-0.0666484,-0.0006901,-0.0008420,-0.0013683
1.5550000,1.5550000,1.5550000,-0.0006834,-0.0001492,-0.0663264,-0.0006834,-0.0008353,-0.0013540
1.5575000,1.5575000,1.5575000,-0.0006768,-0.0001485,-0.0660065,-0.0006768,-0.0008285,-0.0013398
1.5600000,1.5600000,1.5600000,-0.0006703,-0.0001478,-0.0656887,-0.0006703,-0.0008219,-0.0013257
1.5625000,1.5625000,1.5625000,-0.0006639,-0.0001471,-0.0653729,-0.0006639,-0.0008153,-0.0013118
1.5650000,1.5650000,1.5650000,-0.0006575,-0.0001463,-0.0650592,-0.0006575,-0.0008088,-0.0012981
1.5675000,1.5675000,1.5675000,-0.0006512,-0.0001456,-0.0647474,-0.0006512,-0.0008024,-0.0012846
1.5700000,1.5700000,1.5700000,-0.0006450,-0.0001450,-0.0644376,-0.0006450,-0.0007960,-0.0012712
1.5725000,1.5725000,1.5725000,-0.0006388,-0.0001443,-0.0641298,-0.0006388,-0.0007897,-0.0012579
1.5750000,1.5750000,1.5750000,-0.0006327,-0.0001436,-0.0638240,-0.0006327,-0.0007834,-0.0012448
1.5775000,1.5775000,1.5775000,-0.0006267,-0.0001429,-0.0635201,-0.0006267,-0.0007772,-0.0012319
1.5800000,1.5800000,1.5800000,-0.0006207,-0.0001422,-0.0632182,-0.0006207,-0.0007711,-0.0012191
1.5825000,1.5825000,1.5825000,-0.0006149,-0.0001415,-0.0629181,-0.0006149,-0.0007651,-0.0012064
1.5850000,1.5850000,1.5850000,-0.0006090,-0.0001409,-0.0626199,-0.0006090,-0.0007591,-0.0011939
1.5875000,1.5875000,1.5875000,-0.0006033,-0.0001402,-0.0623237,-0.0006033,-0.0007531,-0.0011816
1.5900000,1.5900000,1.5900000,-0.0005976,-0.0001395,-0.0620293,-0.0005976,-0.0007472,-0.0011694
1.5925000,1.5925000,1.5925000,-0.0005919,-0.0001389,-0.0617367,-0.0005919,-0.0007414,-0.0011573
1.5950000,1.5950000,1.5950000,-0.0005864,-0.0001382,-0.0614460,-0.0005864,-0.0007357,-0.0011453
1.5975000,1.5975000,1.5975000,-0.0005809,-0.0001376,-0.0611571,-0.0005809,-0.0007299,-0.0011335
