# r[nm],d[nm],daligned[nm],U(d)[kj/mol],V(d)[e/nm],Uslab(d)[kJ/mol],UC(d)[kJ/mol],UK(d)[kJ/mol],UCl(d)[kJ/mol]
0.2025000,0.2025000,0.2025000,1701.3687306,-0.0615347,262.6994903,1701.3687306,1053.0232448,inf
0.2050000,0.2050000,0.2050000,1498.0468153,-0.0589972,220.6277670,1498.0468153,926.4298582,inf
0.2075000,0.2075000,0.2075000,1319.7850156,-0.0565805,185.9910857,1319.7850156,815.5436956,inf
0.2100000,0.2100000,0.2100000,1163.4029620,-0.0542786,157.3472803,1163.4029620,718.3594453,inf
0.2125000,0.2125000,0.2125000,1026.1373831,-0.0520855,133.5575084,1026.1373831,633.1364049,inf
0.2150000,0.2150000,0.2150000,905.5852082,-0.0499957,113.7204775,905.5852082,558.3621087,inf
0.2175000,0.2175000,0.2175000,799.6548302,-0.0480038,97.1201033,799.6548302,492.7211663,inf
0.2200000,0.2200000,0.2200000,706.5242765,-0.0461048,83.1838164,706.5242765,435.0685045,inf
0.2225000,0.2225000,0.2225000,624.6052396,-0.0442941,71.4499684,624.6052396,384.4063567,inf
0.2250000,0.2250000,0.2250000,552.5120812,-0.0425671,61.5427664,552.5120812,339.8644866,inf
0.2275000,0.2275000,0.2275000,489.0350649,-0.0409195,53.1530009,489.0350649,300.6832356,inf
0.2300000,0.2300000,0.2300000,433.1172022,-0.0393472,46.0231618,433.1172022,266.1990391,inf
0.2325000,0.2325000,0.2325000,383.8342160,-0.0378466,39.9363485,383.8342160,235.8320765,1703.3421534
0.2350000,0.2350000,0.2350000,340.3772301,-0.0364139,34.7091784,340.3772301,209.0757114,1511.9581096
0.2375000,0.2375000,0.2375000,302.0378677,-0.0350457,30.1887113,302.0378677,185.4873835,1342.7879227
0.2400000,0.2400000,0.2400000,268.1954680,-0.0337388,26.2518114,268.1954680,164.6806476,1193.1781138
0.2425000,0.2425000,0.2425000,238.3061345,-0.0324900,22.8038433,238.3061345,146.3181252,1060.8008348
0.2450000,0.2450000,0.2450000,211.8933122,-0.0312966,19.7744476,211.8933122,130.1052163,943.6128965
0.2475000,0.2475000,0.2475000,188.5396018,-0.0301557,17.1109469,188.5396018,115.7844907,839.8200784
0.2500000,0.2500000,0.2500000,167.8795508,-0.0290649,14.7717261,167.8795508,103.1307129,747.8460166
0.2525000,0.2525000,0.2525000,149.5932334,-0.0280216,12.7213716,149.5932334,91.9464553,666.3050545
0.2550000,0.2550000,0.2550000,133.4005006,-0.0270236,10.9278895,133.4005006,82.0582391,593.9785265
0.2575000,0.2575000,0.2575000,119.0558418,-0.0260687,9.3614803,119.0558418,73.3131381,529.7940179
0.2600000,0.2600000,0.2600000,106.3438223,-0.0251546,7.9942410,106.3438223,65.5757960,472.8072203
0.2625000,0.2625000,0.2625000,95.0750541,-0.0242793,6.8003244,95.0750541,58.7258500,422.1860752
0.2650000,0.2650000,0.2650000,85.0826417,-0.0234406,5.7562398,85.0826417,52.6557981,377.1969559
0.2675000,0.2675000,0.2675000,76.2190440,-0.0226358,4.8410941,76.2190440,47.2693835,337.1926714
0.2700000,0.2700000,0.2700000,68.3533081,-0.0218623,4.0366626,68.3533081,42.4805515,301.6020820
0.2725000,0.2725000,0.2725000,61.3686763,-0.0211166,3.3272405,61.3686763,38.2129502,269.9211099
0.2750000,0.2750000,0.2750000,55.1606077,-0.0203952,2.6992676,55.1606077,34.3997940,241.7049193
0.2775000,0.2775000,0.2775000,49.6352867,-0.0196942,2.1407971,49.6352867,30.9837712,216.5610496
0.2800000,0.2800000,0.2800000,44.7086708,-0.0190102,1.6409890,44.7086708,27.9166574,194.1433197
0.2825000,0.2825000,0.2825000,40.3060410,-0.0183407,1.1898619,40.3060410,25.1584439,174.1463657
0.2850000,0.2850000,0.2850000,36.3618806,-0.0176848,0.7784208,36.3618806,22.6760407,156.3007331
0.2875000,0.2875000,0.2875000,32.8197830,-0.0170432,0.3990528,32.8197830,20.4417999,140.3684748
0.2900000,0.2900000,0.2900000,29.6320791,-0.0164181,0.0459132,29.6320791,18.4321304,126.1392283
0.2925000,0.2925000,0.2925000,26.7590122,-0.0158126,-0.2849549,26.7590122,16.6263800,113.4267332
0.2950000,0.2950000,0.2950000,24.1675188,-0.0152294,-0.5958517,24.1675188,15.0060241,102.0657447
0.2975000,0.2975000,0.2975000,21.8298364,-0.0146708,-0.8878930,21.8298364,13.5541205,91.9092877
0.3000000,0.3000000,0.3000000,19.7221908,-0.0141379,-1.1615210,19.7221908,12.2549583,82.8262137
0.3025000,0.3025000,0.3025000,17.8237238,-0.0136310,-1.4168932,17.8237238,11.0938383,74.6990487
0.3050000,0.3050000,0.3050000,16.1157080,-0.0131495,-1.6540949,16.1157080,10.0569486,67.4221613
0.3075000,0.3075000,0.3075000,14.5810121,-0.0126921,-1.8732154,14.5810121,9.1313130,60.9003048
0.3100000,0.3100000,0.3100000,13.2037544,-0.0122574,-2.0743630,13.2037544,8.3047967,55.0475863
0.3125000,0.3125000,0.3125000,11.9690867,-0.0118433,-2.2576736,11.9690867,7.5661487,49.7868608
0.3150000,0.3150000,0.3150000,10.8630702,-0.0114478,-2.4233364,10.8630702,6.9050582,45.0494613
0.3175000,0.3175000,0.3175000,9.8726221,-0.0110686,-2.5716311,9.8726221,6.3122005,40.7750720
0.3200000,0.3200000,0.3200000,8.9855128,-0.0107035,-2.7029617,8.9855128,5.7792581,36.9115055
0.3225000,0.3225000,0.3225000,8.1903977,-0.0103505,-2.8178766,8.1903977,5.2989058,33.4141955
0.3250000,0.3250000,0.3250000,7.4768599,-0.0100077,-2.9170690,7.4768599,4.8647606,30.2453522
0.3275000,0.3275000,0.3275000,6.8354465,-0.0096736,-3.0013603,6.8354465,4.4712942,27.3728789
0.3300000,0.3300000,0.3300000,6.2576828,-0.0093468,-3.0716737,6.2576828,4.1137074,24.7692251
0.3325000,0.3325000,0.3325000,5.7360574,-0.0090264,-3.1290011,5.7360574,3.7877577,22.4103436
0.3350000,0.3350000,0.3350000,5.2639735,-0.0087118,-3.1743708,5.2639735,3.4895495,20.2748455
0.3375000,0.3375000,0.3375000,4.8356676,-0.0084025,-3.2088185,4.8356676,3.2153231,18.3433717
0.3400000,0.3400000,0.3400000,4.4460894,-0.0080980,-3.2333630,4.4460894,2.9613116,16.5981549
0.3425000,0.3425000,0.3425000,4.0907406,-0.0077976,-3.2489876,4.0907406,2.7237307,15.0227253
0.3450000,0.3450000,0.3450000,3.7654837,-0.0075000,-3.2566264,3.7654837,2.4989270,13.6017231
0.3475000,0.3475000,0.3475000,3.4663590,-0.0072032,-3.2571557,3.4663590,2.2836390,12.3207852
0.3500000,0.3500000,0.3500000,3.1894668,-0.0069046,-3.2513893,3.1894668,2.0752787,11.1664867
0.3525000,0.3525000,0.3525000,2.9309662,-0.0066013,-3.2400761,2.9309662,1.8721270,10.1263195
0.3550000,0.3550000,0.3550000,2.6872038,-0.0062906,-3.2239005,2.6872038,1.6733779,9.1886925
0.3575000,0.3575000,0.3575000,2.4549313,-0.0059713,-3.2034845,2.4549313,1.4790227,8.3429403
0.3600000,0.3600000,0.3600000,2.2315355,-0.0056435,-3.1793901,2.2315355,1.2896239,7.5793270
0.3625000,0.3625000,0.3625000,2.0151958,-0.0053093,-3.1521235,2.0151958,1.1060490,6.8890379
0.3650000,0.3650000,0.3650000,1.8049169,-0.0049722,-3.1221387,1.8049169,0.9292279,6.2641513
0.3675000,0.3675000,0.3675000,1.6004317,-0.0046363,-3.0898416,1.6004317,0.7599780,5.6975873
0.3700000,0.3700000,0.3700000,1.4020107,-0.0043059,-3.0555944,1.4020107,0.5989125,5.1830295
0.3725000,0.3725000,0.3725000,1.2102351,-0.0039847,-3.0197192,1.2102351,0.4464264,4.7148167
0.3750000,0.3750000,0.3750000,1.0257859,-0.0036753,-2.9825022,1.0257859,0.3027388,4.2878109
0.3775000,0.3775000,0.3775000,0.8492895,-0.0033794,-2.9441968,0.8492895,0.1679578,3.8972589
0.3800000,0.3800000,0.3800000,0.6812322,-0.0030977,-2.9050271,0.6812322,0.0421418,3.5386788
0.3825000,0.3825000,0.3825000,0.5219412,-0.0028304,-2.8651911,0.5219412,-0.0746645,3.2078023
0.3850000,0.3850000,0.3850000,0.3716121,-0.0025773,-2.8248632,0.3716121,-0.1824215,2.9005934
0.3875000,0.3875000,0.3875000,0.2303552,-0.0023384,-2.7841967,0.2303552,-0.2811087,2.6133367
0.3900000,0.3900000,0.3900000,0.0982390,-0.0021137,-2.7433265,0.0982390,-0.3707485,2.3427649
0.3925000,0.3925000,0.3925000,-0.0246855,-0.0019033,-2.7023703,-0.0246855,-0.4514306,2.0861797
0.3950000,0.3950000,0.3950000,-0.1383810,-0.0017074,-2.6614313,-0.1383810,-0.5233281,1.8415244
0.3975000,0.3975000,0.3975000,-0.2428367,-0.0015264,-2.6205993,-0.2428367,-0.5867029,1.6073835
0.4000000,0.4000000,0.4000000,-0.3380882,-0.0013604,-2.5799526,-0.3380882,-0.6419020,1.3829092
0.4025000,0.4025000,0.4025000,-0.4242370,-0.0012092,-2.5395587,-0.4242370,-0.6893454,1.1676961
0.4050000,0.4050000,0.4050000,-0.5014629,-0.0010726,-2.4994762,-0.5014629,-0.7295099,0.9616350
0.4075000,0.4075000,0.4075000,-0.5700280,-0.0009499,-2.4597551,-0.5700280,-0.7629112,0.7647779
0.4100000,0.4100000,0.4100000,-0.6302729,-0.0008405,-2.4204385,-0.6302729,-0.7900870,0.5772347
0.4125000,0.4125000,0.4125000,-0.6826058,-0.0007435,-2.3815628,-0.6826058,-0.8115810,0.3991124
0.4150000,0.4150000,0.4150000,-0.7274881,-0.0006580,-2.3431588,-0.7274881,-0.8279306,0.2304901
0.4175000,0.4175000,0.4175000,-0.7654190,-0.0005829,-2.3052521,-0.7654190,-0.8396560,0.0714191
0.4200000,0.4200000,0.4200000,-0.7969196,-0.0005172,-2.2678640,-0.7969196,-0.8472538,-0.0780666
0.4225000,0.4225000,0.4225000,-0.8225190,-0.0004600,-2.2310118,-0.8225190,-0.8511910,-0.2179422
0.4250000,0.4250000,0.4250000,-0.8427422,-0.0004104,-2.1947092,-0.8427422,-0.8519023,-0.3481908
0.4275000,0.4275000,0.4275000,-0.8581007,-0.0003675,-2.1589670,-0.8581007,-0.8497888,-0.4688115
0.4300000,0.4300000,0.4300000,-0.8690849,-0.0003304,-2.1237932,-0.8690849,-0.8452171,-0.5798331
0.4325000,0.4325000,0.4325000,-0.8761594,-0.0002985,-2.0891933,-0.8761594,-0.8385207,-0.6813290
0.4350000,0.4350000,0.4350000,-0.8797596,-0.0002711,-2.0551709,-0.8797596,-0.8300008,-0.7734301
0.4375000,0.4375000,0.4375000,-0.8802894,-0.0002476,-2.0217276,-0.8802894,-0.8199282,-0.8563323
0.4400000,0.4400000,0.4400000,-0.8781210,-0.0002276,-1.9888636,-0.8781210,-0.8085450,-0.9302989
0.4425000,0.4425000,0.4425000,-0.8735952,-0.0002105,-1.9565775,-0.8735952,-0.7960674,-0.9956568
0.4450000,0.4450000,0.4450000,-0.8670219,-0.0001959,-1.9248668,-0.8670219,-0.7826871,-1.0527892
0.4475000,0.4475000,0.4475000,-0.8586817,-0.0001836,-1.8937277,-0.8586817,-0.7685738,-1.1021250
0.4500000,0.4500000,0.4500000,-0.8488277,-0.0001731,-1.8631559,-0.8488277,-0.7538773,-1.1441269
0.4525000,0.4525000,0.4525000,-0.8376868,-0.0001643,-1.8331459,-0.8376868,-0.7387292,-1.1792803
0.4550000,0.4550000,0.4550000,-0.8254624,-0.0001569,-1.8036918,-0.8254624,-0.7232449,-1.2080812
0.4575000,0.4575000,0.4575000,-0.8123358,-0.0001507,-1.7747869,-0.8123358,-0.7075254,-1.2310274
0.4600000,0.4600000,0.4600000,-0.7984679,-0.0001455,-1.7464242,-0.7984679,-0.6916584,-1.2486094
0.4625000,0.4625000,0.4625000,-0.7840018,-0.0001411,-1.7185961,-0.7840018,-0.6757203,-1.2613043
0.4650000,0.4650000,0.4650000,-0.7690637,-0.0001375,-1.6912950,-0.7690637,-0.6597771,-1.2695702
0.4675000,0.4675000,0.4675000,-0.7537650,-0.0001346,-1.6645126,-0.7537650,-0.6438855,-1.2738429
0.4700000,0.4700000,0.4700000,-0.7382035,-0.0001321,-1.6382406,-0.7382035,-0.6280942,-1.2745332
0.4725000,0.4725000,0.4725000,-0.7224651,-0.0001301,-1.6124705,-0.7224651,-0.6124449,-1.2720256
0.4750000,0.4750000,0.4750000,-0.7066248,-0.0001285,-1.5871937,-0.7066248,-0.5969727,-1.2666775
0.4775000,0.4775000,0.4775000,-0.6907480,-0.0001272,-1.5624015,-0.6907480,-0.5817072,-1.2588193
0.4800000,0.4800000,0.4800000,-0.6748913,-0.0001261,-1.5380850,-0.6748913,-0.5666733,-1.2487550
0.4825000,0.4825000,0.4825000,-0.6591039,-0.0001253,-1.5142355,-0.6591039,-0.5518912,-1.2367628
0.4850000,0.4850000,0.4850000,-0.6434278,-0.0001246,-1.4908441,-0.6434278,-0.5373777,-1.2230968
0.4875000,0.4875000,0.4875000,-0.6278994,-0.0001241,-1.4679020,-0.6278994,-0.5231459,-1.2079879
0.4900000,0.4900000,0.4900000,-0.6125494,-0.0001237,-1.4454005,-0.6125494,-0.5092064,-1.1916453
0.4925000,0.4925000,0.4925000,-0.5974037,-0.0001234,-1.4233308,-0.5974037,-0.4955670,-1.1742581
0.4950000,0.4950000,0.4950000,-0.5824843,-0.0001231,-1.4016843,-0.5824843,-0.4822333,-1.1559965
0.4975000,0.4975000,0.4975000,-0.5678091,-0.0001229,-1.3804525,-0.5678091,-0.4692091,-1.1370137
0.5000000,0.5000000,0.5000000,-0.5533931,-0.0001227,-1.3596269,-0.5533931,-0.4564966,-1.1174469
0.5025000,0.5025000,0.5025000,-0.5392481,-0.0001226,-1.3391991,-0.5392481,-0.4440962,-1.0974188
0.5050000,0.5050000,0.5050000,-0.5253835,-0.0001224,-1.3191609,-0.5253835,-0.4320076,-1.0770389
0.5075000,0.5075000,0.5075000,-0.5118066,-0.0001223,-1.2995041,-0.5118066,-0.4202290,-1.0564045
0.5100000,0.5100000,0.5100000,-0.4985226,-0.0001222,-1.2802208,-0.4985226,-0.4087579,-1.0356020
0.5125000,0.5125000,0.5125000,-0.4855349,-0.0001221,-1.2613031,-0.4855349,-0.3975910,-1.0147080
0.5150000,0.5150000,0.5150000,-0.4728457,-0.0001219,-1.2427432,-0.4728457,-0.3867243,-0.9937900
0.5175000,0.5175000,0.5175000,-0.4604557,-0.0001217,-1.2245336,-0.4604557,-0.3761534,-0.9729074
0.5200000,0.5200000,0.5200000,-0.4483645,-0.0001216,-1.2066667,-0.4483645,-0.3658733,-0.9521122
0.5225000,0.5225000,0.5225000,-0.4365708,-0.0001214,-1.1891353,-0.4365708,-0.3558788,-0.9314499
0.5250000,0.5250000,0.5250000,-0.4250725,-0.0001211,-1.1719322,-0.4250725,-0.3461641,-0.9109601
0.5275000,0.5275000,0.5275000,-0.4138667,-0.0001209,-1.1550502,-0.4138667,-0.3367236,-0.8906771
0.5300000,0.5300000,0.5300000,-0.4029500,-0.0001206,-1.1384826,-0.4029500,-0.3275511,-0.8706302
0.5325000,0.5325000,0.5325000,-0.3923183,-0.0001203,-1.1222225,-0.3923183,-0.3186405,-0.8508448
0.5350000,0.5350000,0.5350000,-0.3819673,-0.0001200,-1.1062634,-0.3819673,-0.3099856,-0.8313421
0.5375000,0.5375000,0.5375000,-0.3718922,-0.0001197,-1.0905987,-0.3718922,-0.3015802,-0.8121401
0.5400000,0.5400000,0.5400000,-0.3620881,-0.0001193,-1.0752220,-0.3620881,-0.2934179,-0.7932536
0.5425000,0.5425000,0.5425000,-0.3525495,-0.0001189,-1.0601273,-0.3525495,-0.2854923,-0.7746950
0.5450000,0.5450000,0.5450000,-0.3432711,-0.0001185,-1.0453085,-0.3432711,-0.2777974,-0.7564738
0.5475000,0.5475000,0.5475000,-0.3342473,-0.0001180,-1.0307595,-0.3342473,-0.2703267,-0.7385978
0.5500000,0.5500000,0.5500000,-0.3254723,-0.0001176,-1.0164745,-0.3254723,-0.2630741,-0.7210727
0.5525000,0.5525000,0.5525000,-0.3169405,-0.0001171,-1.0024480,-0.3169405,-0.2560336,-0.7039023
0.5550000,0.5550000,0.5550000,-0.3086459,-0.0001166,-0.9886744,-0.3086459,-0.2491992,-0.6870893
0.5575000,0.5575000,0.5575000,-0.3005829,-0.0001161,-0.9751482,-0.3005829,-0.2425649,-0.6706349
0.5600000,0.5600000,0.5600000,-0.2927455,-0.0001155,-0.9618641,-0.2927455,-0.2361250,-0.6545391
0.5625000,0.5625000,0.5625000,-0.2851281,-0.0001150,-0.9488170,-0.2851281,-0.2298738,-0.6388010
0.5650000,0.5650000,0.5650000,-0.2777248,-0.0001144,-0.9360018,-0.2777248,-0.2238057,-0.6234187
0.5675000,0.5675000,0.5675000,-0.2705300,-0.0001138,-0.9234135,-0.2705300,-0.2179153,-0.6083895
0.5700000,0.5700000,0.5700000,-0.2635381,-0.0001132,-0.9110474,-0.2635381,-0.2121972,-0.5937103
0.5725000,0.5725000,0.5725000,-0.2567436,-0.0001126,-0.8988988,-0.2567436,-0.2066464,-0.5793771
0.5750000,0.5750000,0.5750000,-0.2501410,-0.0001120,-0.8869629,-0.2501410,-0.2012577,-0.5653856
0.5775000,0.5775000,0.5775000,-0.2437249,-0.0001114,-0.8752354,-0.2437249,-0.1960263,-0.5517310
0.5800000,0.5800000,0.5800000,-0.2374902,-0.0001107,-0.8637118,-0.2374902,-0.1909473,-0.5384082
0.5825000,0.5825000,0.5825000,-0.2314316,-0.0001101,-0.8523879,-0.2314316,-0.1860161,-0.5254117
0.5850000,0.5850000,0.5850000,-0.2255442,-0.0001094,-0.8412594,-0.2255442,-0.1812281,-0.5127359
0.5875000,0.5875000,0.5875000,-0.2198230,-0.0001087,-0.8303223,-0.2198230,-0.1765790,-0.5003748
0.5900000,0.5900000,0.5900000,-0.2142633,-0.0001080,-0.8195725,-0.2142633,-0.1720644,-0.4883226
0.5925000,0.5925000,0.5925000,-0.2088603,-0.0001074,-0.8090063,-0.2088603,-0.1676803,-0.4765729
0.5950000,0.5950000,0.5950000,-0.2036094,-0.0001067,-0.7986197,-0.2036094,-0.1634225,-0.4651197
0.5975000,0.5975000,0.5975000,-0.1985063,-0.0001060,-0.7884090,-0.1985063,-0.1592873,-0.4539565
0.6000000,0.6000000,0.6000000,-0.1935465,-0.0001053,-0.7783707,-0.1935465,-0.1552707,-0.4430770
0.6025000,0.6025000,0.6025000,-0.1887258,-0.0001045,-0.7685011,-0.1887258,-0.1513691,-0.4324750
0.6050000,0.6050000,0.6050000,-0.1840401,-0.0001038,-0.7587968,-0.1840401,-0.1475790,-0.4221441
0.6075000,0.6075000,0.6075000,-0.1794855,-0.0001031,-0.7492545,-0.1794855,-0.1438969,-0.4120779
0.6100000,0.6100000,0.6100000,-0.1750579,-0.0001024,-0.7398707,-0.1750579,-0.1403195,-0.4022702
0.6125000,0.6125000,0.6125000,-0.1707536,-0.0001017,-0.7306424,-0.1707536,-0.1368434,-0.3927148
0.6150000,0.6150000,0.6150000,-0.1665691,-0.0001010,-0.7215663,-0.1665691,-0.1334656,-0.3834055
0.6175000,0.6175000,0.6175000,-0.1625006,-0.0001002,-0.7126393,-0.1625006,-0.1301831,-0.3743362
0.6200000,0.6200000,0.6200000,-0.1585447,-0.0000995,-0.7038586,-0.1585447,-0.1269929,-0.3655011
0.6225000,0.6225000,0.6225000,-0.1546980,-0.0000988,-0.6952210,-0.1546980,-0.1238921,-0.3568941
0.6250000,0.6250000,0.6250000,-0.1509574,-0.0000981,-0.6867238,-0.1509574,-0.1208780,-0.3485094
0.6275000,0.6275000,0.6275000,-0.1473196,-0.0000973,-0.6783641,-0.1473196,-0.1179479,-0.3403414
0.6300000,0.6300000,0.6300000,-0.1437816,-0.0000966,-0.6701392,-0.1437816,-0.1150992,-0.3323844
0.6325000,0.6325000,0.6325000,-0.1403403,-0.0000959,-0.6620465,-0.1403403,-0.1123295,-0.3246329
0.6350000,0.6350000,0.6350000,-0.1369929,-0.0000952,-0.6540833,-0.1369929,-0.1096363,-0.3170816
0.6375000,0.6375000,0.6375000,-0.1337366,-0.0000945,-0.6462470,-0.1337366,-0.1070173,-0.3097252
0.6400000,0.6400000,0.6400000,-0.1305687,-0.0000937,-0.6385353,-0.1305687,-0.1044702,-0.3025585
0.6425000,0.6425000,0.6425000,-0.1274866,-0.0000930,-0.6309456,-0.1274866,-0.1019928,-0.2955765
0.6450000,0.6450000,0.6450000,-0.1244876,-0.0000923,-0.6234755,-0.1244876,-0.0995830,-0.2887742
0.6475000,0.6475000,0.6475000,-0.1215694,-0.0000916,-0.6161228,-0.1215694,-0.0972387,-0.2821469
0.6500000,0.6500000,0.6500000,-0.1187295,-0.0000909,-0.6088851,-0.1187295,-0.0949580,-0.2756897
0.6525000,0.6525000,0.6525000,-0.1159656,-0.0000902,-0.6017603,-0.1159656,-0.0927390,-0.2693982
0.6550000,0.6550000,0.6550000,-0.1132755,-0.0000895,-0.5947461,-0.1132755,-0.0905797,-0.2632679
0.6575000,0.6575000,0.6575000,-0.1106570,-0.0000888,-0.5878404,-0.1106570,-0.0884785,-0.2572944
0.6600000,0.6600000,0.6600000,-0.1081079,-0.0000881,-0.5810413,-0.1081079,-0.0864334,-0.2514734
0.6625000,0.6625000,0.6625000,-0.1056263,-0.0000874,-0.5743465,-0.1056263,-0.0844430,-0.2458008
0.6650000,0.6650000,0.6650000,-0.1032102,-0.0000867,-0.5677542,-0.1032102,-0.0825054,-0.2402726
0.6675000,0.6675000,0.6675000,-0.1008576,-0.0000860,-0.5612624,-0.1008576,-0.0806193,-0.2348849
0.6700000,0.6700000,0.6700000,-0.0985667,-0.0000853,-0.5548692,-0.0985667,-0.0787829,-0.2296337
0.6725000,0.6725000,0.6725000,-0.0963356,-0.0000847,-0.5485728,-0.0963356,-0.0769949,-0.2245154
0.6750000,0.6750000,0.6750000,-0.0941627,-0.0000840,-0.5423713,-0.0941627,-0.0752539,-0.2195264
0.6775000,0.6775000,0.6775000,-0.0920462,-0.0000833,-0.5362630,-0.0920462,-0.0735583,-0.2146631
0.6800000,0.6800000,0.6800000,-0.0899846,-0.0000827,-0.5302461,-0.0899846,-0.0719070,-0.2099221
0.6825000,0.6825000,0.6825000,-0.0879762,-0.0000820,-0.5243190,-0.0879762,-0.0702986,-0.2053000
0.6850000,0.6850000,0.6850000,-0.0860194,-0.0000813,-0.5184799,-0.0860194,-0.0687318,-0.2007937
0.6875000,0.6875000,0.6875000,-0.0841129,-0.0000807,-0.5127273,-0.0841129,-0.0672055,-0.1964000
0.6900000,0.6900000,0.6900000,-0.0822552,-0.0000800,-0.5070596,-0.0822552,-0.0657185,-0.1921157
0.6925000,0.6925000,0.6925000,-0.0804448,-0.0000794,-0.5014752,-0.0804448,-0.0642695,-0.1879380
0.6950000,0.6950000,0.6950000,-0.0786804,-0.0000788,-0.4959726,-0.0786804,-0.0628576,-0.1838639
0.6975000,0.6975000,0.6975000,-0.0769607,-0.0000781,-0.4905503,-0.0769607,-0.0614817,-0.1798906
0.7000000,0.7000000,0.7000000,-0.0752844,-0.0000775,-0.4852068,-0.0752844,-0.0601407,-0.1760154
0.7025000,0.7025000,0.7025000,-0.0736503,-0.0000769,-0.4799408,-0.0736503,-0.0588336,-0.1722355
0.7050000,0.7050000,0.7050000,-0.0720573,-0.0000763,-0.4747508,-0.0720573,-0.0575594,-0.1685485
0.7075000,0.7075000,0.7075000,-0.0705041,-0.0000756,-0.4696355,-0.0705041,-0.0563173,-0.1649518
0.7100000,0.7100000,0.7100000,-0.0689896,-0.0000750,-0.4645935,-0.0689896,-0.0551063,-0.1614430
0.7125000,0.7125000,0.7125000,-0.0675127,-0.0000744,-0.4596235,-0.0675127,-0.0539255,-0.1580197
0.7150000,0.7150000,0.7150000,-0.0660725,-0.0000738,-0.4547243,-0.0660725,-0.0527741,-0.1546795
0.7175000,0.7175000,0.7175000,-0.0646678,-0.0000732,-0.4498946,-0.0646678,-0.0516512,-0.1514204
0.7200000,0.7200000,0.7200000,-0.0632976,-0.0000726,-0.4451332,-0.0632976,-0.0505561,-0.1482400
0.7225000,0.7225000,0.7225000,-0.0619611,-0.0000721,-0.4404389,-0.0619611,-0.0494879,-0.1451363
0.7250000,0.7250000,0.7250000,-0.0606573,-0.0000715,-0.4358104,-0.0606573,-0.0484460,-0.1421072
0.7275000,0.7275000,0.7275000,-0.0593853,-0.0000709,-0.4312467,-0.0593853,-0.0474296,-0.1391507
0.7300000,0.7300000,0.7300000,-0.0581442,-0.0000703,-0.4267466,-0.0581442,-0.0464379,-0.1362649
0.7325000,0.7325000,0.7325000,-0.0569331,-0.0000698,-0.4223091,-0.0569331,-0.0454703,-0.1334480
0.7350000,0.7350000,0.7350000,-0.0557513,-0.0000692,-0.4179329,-0.0557513,-0.0445262,-0.1306980
0.7375000,0.7375000,0.7375000,-0.0545979,-0.0000686,-0.4136172,-0.0545979,-0.0436049,-0.1280132
0.7400000,0.7400000,0.7400000,-0.0534722,-0.0000681,-0.4093608,-0.0534722,-0.0427057,-0.1253919
0.7425000,0.7425000,0.7425000,-0.0523735,-0.0000676,-0.4051627,-0.0523735,-0.0418281,-0.1228324
0.7450000,0.7450000,0.7450000,-0.0513009,-0.0000670,-0.4010220,-0.0513009,-0.0409715,-0.1203331
0.7475000,0.7475000,0.7475000,-0.0502538,-0.0000665,-0.3969376,-0.0502538,-0.0401353,-0.1178924
0.7500000,0.7500000,0.7500000,-0.0492315,-0.0000659,-0.3929086,-0.0492315,-0.0393189,-0.1155087
0.7525000,0.7525000,0.7525000,-0.0482333,-0.0000654,-0.3889341,-0.0482333,-0.0385219,-0.1131807
0.7550000,0.7550000,0.7550000,-0.0472586,-0.0000649,-0.3850131,-0.0472586,-0.0377437,-0.1109067
0.7575000,0.7575000,0.7575000,-0.0463068,-0.0000644,-0.3811448,-0.0463068,-0.0369837,-0.1086854
0.7600000,0.7600000,0.7600000,-0.0453772,-0.0000639,-0.3773282,-0.0453772,-0.0362416,-0.1065155
0.7625000,0.7625000,0.7625000,-0.0444694,-0.0000633,-0.3735626,-0.0444694,-0.0355168,-0.1043956
0.7650000,0.7650000,0.7650000,-0.0435826,-0.0000628,-0.3698470,-0.0435826,-0.0348089,-0.1023244
0.7675000,0.7675000,0.7675000,-0.0427163,-0.0000623,-0.3661806,-0.0427163,-0.0341174,-0.1003007
0.7700000,0.7700000,0.7700000,-0.0418701,-0.0000618,-0.3625627,-0.0418701,-0.0334419,-0.0983232
0.7725000,0.7725000,0.7725000,-0.0410433,-0.0000614,-0.3589924,-0.0410433,-0.0327820,-0.0963908
0.7750000,0.7750000,0.7750000,-0.0402355,-0.0000609,-0.3554689,-0.0402355,-0.0321372,-0.0945022
0.7775000,0.7775000,0.7775000,-0.0394461,-0.0000604,-0.3519915,-0.0394461,-0.0315072,-0.0926564
0.7800000,0.7800000,0.7800000,-0.0386748,-0.0000599,-0.3485594,-0.0386748,-0.0308916,-0.0908523
0.7825000,0.7825000,0.7825000,-0.0379210,-0.0000594,-0.3451720,-0.0379210,-0.0302900,-0.0890889
0.7850000,0.7850000,0.7850000,-0.0371842,-0.0000590,-0.3418283,-0.0371842,-0.0297021,-0.0873650
0.7875000,0.7875000,0.7875000,-0.0364642,-0.0000585,-0.3385279,-0.0364642,-0.0291275,-0.0856797
0.7900000,0.7900000,0.7900000,-0.0357603,-0.0000580,-0.3352699,-0.0357603,-0.0285658,-0.0840320
0.7925000,0.7925000,0.7925000,-0.0350722,-0.0000576,-0.3320536,-0.0350722,-0.0280167,-0.0824210
0.7950000,0.7950000,0.7950000,-0.0343995,-0.0000571,-0.3288785,-0.0343995,-0.0274799,-0.0808458
0.7975000,0.7975000,0.7975000,-0.0337418,-0.0000567,-0.3257439,-0.0337418,-0.0269552,-0.0793054
0.8000000,0.8000000,0.8000000,-0.0330988,-0.0000562,-0.3226490,-0.0330988,-0.0264421,-0.0777990
0.8025000,0.8025000,0.8025000,-0.0324699,-0.0000558,-0.3195934,-0.0324699,-0.0259403,-0.0763258
0.8050000,0.8050000,0.8050000,-0.0318550,-0.0000554,-0.3165763,-0.0318550,-0.0254497,-0.0748848
0.8075000,0.8075000,0.8075000,-0.0312537,-0.0000549,-0.3135972,-0.0312537,-0.0249699,-0.0734754
0.8100000,0.8100000,0.8100000,-0.0306655,-0.0000545,-0.3106554,-0.0306655,-0.0245007,-0.0720967
0.8125000,0.8125000,0.8125000,-0.0300902,-0.0000541,-0.3077504,-0.0300902,-0.0240417,-0.0707480
0.8150000,0.8150000,0.8150000,-0.0295275,-0.0000537,-0.3048816,-0.0295275,-0.0235927,-0.0694285
0.8175000,0.8175000,0.8175000,-0.0289770,-0.0000533,-0.3020485,-0.0289770,-0.0231536,-0.0681376
0.8200000,0.8200000,0.8200000,-0.0284385,-0.0000528,-0.2992504,-0.0284385,-0.0227239,-0.0668745
0.8225000,0.8225000,0.8225000,-0.0279116,-0.0000524,-0.2964869,-0.0279116,-0.0223036,-0.0656385
0.8250000,0.8250000,0.8250000,-0.0273960,-0.0000520,-0.2937574,-0.0273960,-0.0218923,-0.0644291
0.8275000,0.8275000,0.8275000,-0.0268916,-0.0000516,-0.2910614,-0.0268916,-0.0214899,-0.0632455
0.8300000,0.8300000,0.8300000,-0.0263979,-0.0000512,-0.2883984,-0.0263979,-0.0210961,-0.0620871
0.8325000,0.8325000,0.8325000,-0.0259148,-0.0000508,-0.2857679,-0.0259148,-0.0207107,-0.0609533
0.8350000,0.8350000,0.8350000,-0.0254420,-0.0000504,-0.2831693,-0.0254420,-0.0203335,-0.0598435
0.8375000,0.8375000,0.8375000,-0.0249793,-0.0000501,-0.2806022,-0.0249793,-0.0199644,-0.0587572
0.8400000,0.8400000,0.8400000,-0.0245263,-0.0000497,-0.2780662,-0.0245263,-0.0196031,-0.0576937
0.8425000,0.8425000,0.8425000,-0.0240829,-0.0000493,-0.2755607,-0.0240829,-0.0192493,-0.0566526
0.8450000,0.8450000,0.8450000,-0.0236488,-0.0000489,-0.2730853,-0.0236488,-0.0189031,-0.0556334
0.8475000,0.8475000,0.8475000,-0.0232239,-0.0000486,-0.2706395,-0.0232239,-0.0185641,-0.0546353
0.8500000,0.8500000,0.8500000,-0.0228078,-0.0000482,-0.2682229,-0.0228078,-0.0182322,-0.0536581
0.8525000,0.8525000,0.8525000,-0.0224004,-0.0000478,-0.2658351,-0.0224004,-0.0179072,-0.0527012
0.8550000,0.8550000,0.8550000,-0.0220015,-0.0000475,-0.2634757,-0.0220015,-0.0175890,-0.0517641
0.8575000,0.8575000,0.8575000,-0.0216109,-0.0000471,-0.2611441,-0.0216109,-0.0172774,-0.0508463
0.8600000,0.8600000,0.8600000,-0.0212283,-0.0000467,-0.2588401,-0.0212283,-0.0169722,-0.0499474
0.8625000,0.8625000,0.8625000,-0.0208536,-0.0000464,-0.2565631,-0.0208536,-0.0166733,-0.0490670
0.8650000,0.8650000,0.8650000,-0.0204867,-0.0000460,-0.2543129,-0.0204867,-0.0163806,-0.0482046
0.8675000,0.8675000,0.8675000,-0.0201272,-0.0000457,-0.2520889,-0.0201272,-0.0160938,-0.0473599
0.8700000,0.8700000,0.8700000,-0.0197751,-0.0000454,-0.2498909,-0.0197751,-0.0158130,-0.0465323
0.8725000,0.8725000,0.8725000,-0.0194302,-0.0000450,-0.2477184,-0.0194302,-0.0155378,-0.0457215
0.8750000,0.8750000,0.8750000,-0.0190922,-0.0000447,-0.2455712,-0.0190922,-0.0152682,-0.0449271
0.8775000,0.8775000,0.8775000,-0.0187611,-0.0000444,-0.2434487,-0.0187611,-0.0150041,-0.0441488
0.8800000,0.8800000,0.8800000,-0.0184368,-0.0000440,-0.2413507,-0.0184368,-0.0147453,-0.0433861
0.8825000,0.8825000,0.8825000,-0.0181189,-0.0000437,-0.2392767,-0.0181189,-0.0144918,-0.0426388
0.8850000,0.8850000,0.8850000,-0.0178074,-0.0000434,-0.2372266,-0.0178074,-0.0142433,-0.0419064
0.8875000,0.8875000,0.8875000,-0.0175022,-0.0000431,-0.2351998,-0.0175022,-0.0139998,-0.0411886
0.8900000,0.8900000,0.8900000,-0.0172030,-0.0000427,-0.2331962,-0.0172030,-0.0137612,-0.0404851
0.8925000,0.8925000,0.8925000,-0.0169099,-0.0000424,-0.2312153,-0.0169099,-0.0135273,-0.0397956
0.8950000,0.8950000,0.8950000,-0.0166225,-0.0000421,-0.2292568,-0.0166225,-0.0132980,-0.0391197
0.8975000,0.8975000,0.8975000,-0.0163408,-0.0000418,-0.2273205,-0.0163408,-0.0130733,-0.0384572
0.9000000,0.9000000,0.9000000,-0.0160647,-0.0000415,-0.2254059,-0.0160647,-0.0128530,-0.0378077
0.9025000,0.9025000,0.9025000,-0.0157940,-0.0000412,-0.2235129,-0.0157940,-0.0126371,-0.0371710
0.9050000,0.9050000,0.9050000,-0.0155287,-0.0000409,-0.2216410,-0.0155287,-0.0124254,-0.0365467
0.9075000,0.9075000,0.9075000,-0.0152685,-0.0000406,-0.2197901,-0.0152685,-0.0122178,-0.0359346
0.9100000,0.9100000,0.9100000,-0.0150134,-0.0000403,-0.2179597,-0.0150134,-0.0120143,-0.0353345
0.9125000,0.9125000,0.9125000,-0.0147633,-0.0000400,-0.2161497,-0.0147633,-0.0118148,-0.0347460
0.9150000,0.9150000,0.9150000,-0.0145180,-0.0000397,-0.2143597,-0.0145180,-0.0116191,-0.0341689
0.9175000,0.9175000,0.9175000,-0.0142775,-0.0000394,-0.2125895,-0.0142775,-0.0114272,-0.0336029
0.9200000,0.9200000,0.9200000,-0.0140416,-0.0000391,-0.2108387,-0.0140416,-0.0112390,-0.0330479
0.9225000,0.9225000,0.9225000,-0.0138103,-0.0000389,-0.2091072,-0.0138103,-0.0110544,-0.0325035
0.9250000,0.9250000,0.9250000,-0.0135834,-0.0000386,-0.2073946,-0.0135834,-0.0108734,-0.0319695
0.9275000,0.9275000,0.9275000,-0.0133608,-0.0000383,-0.2057008,-0.0133608,-0.0106958,-0.0314458
0.9300000,0.9300000,0.9300000,-0.0131425,-0.0000380,-0.2040254,-0.0131425,-0.0105216,-0.0309320
0.9325000,0.9325000,0.9325000,-0.0129284,-0.0000378,-0.2023681,-0.0129284,-0.0103507,-0.0304280
0.9350000,0.9350000,0.9350000,-0.0127183,-0.0000375,-0.2007289,-0.0127183,-0.0101831,-0.0299335
0.9375000,0.9375000,0.9375000,-0.0125122,-0.0000372,-0.1991073,-0.0125122,-0.0100186,-0.0294484
0.9400000,0.9400000,0.9400000,-0.0123100,-0.0000370,-0.1975032,-0.0123100,-0.0098573,-0.0289724
0.9425000,0.9425000,0.9425000,-0.0121116,-0.0000367,-0.1959163,-0.0121116,-0.0096990,-0.0285054
0.9450000,0.9450000,0.9450000,-0.0119170,-0.0000364,-0.1943464,-0.0119170,-0.0095436,-0.0280471
0.9475000,0.9475000,0.9475000,-0.0117259,-0.0000362,-0.1927933,-0.0117259,-0.0093912,-0.0275975
0.9500000,0.9500000,0.9500000,-0.0115385,-0.0000359,-0.1912568,-0.0115385,-0.0092416,-0.0271562
0.9525000,0.9525000,0.9525000,-0.0113545,-0.0000357,-0.1897365,-0.0113545,-0.0090948,-0.0267231
0.9550000,0.9550000,0.9550000,-0.0111740,-0.0000354,-0.1882324,-0.0111740,-0.0089507,-0.0262980
0.9575000,0.9575000,0.9575000,-0.0109968,-0.0000352,-0.1867442,-0.0109968,-0.0088093,-0.0258808
0.9600000,0.9600000,0.9600000,-0.0108229,-0.0000349,-0.1852716,-0.0108229,-0.0086705,-0.0254713
0.9625000,0.9625000,0.9625000,-0.0106521,-0.0000347,-0.1838146,-0.0106521,-0.0085342,-0.0250694
0.9650000,0.9650000,0.9650000,-0.0104846,-0.0000344,-0.1823728,-0.0104846,-0.0084005,-0.0246748
0.9675000,0.9675000,0.9675000,-0.0103201,-0.0000342,-0.1809461,-0.0103201,-0.0082692,-0.0242875
0.9700000,0.9700000,0.9700000,-0.0101586,-0.0000340,-0.1795343,-0.0101586,-0.0081403,-0.0239072
0.9725000,0.9725000,0.9725000,-0.0100000,-0.0000337,-0.1781371,-0.0100000,-0.0080137,-0.0235339
0.9750000,0.9750000,0.9750000,-0.0098444,-0.0000335,-0.1767545,-0.0098444,-0.0078895,-0.0231673
0.9775000,0.9775000,0.9775000,-0.0096915,-0.0000333,-0.1753861,-0.0096915,-0.0077675,-0.0228074
0.9800000,0.9800000,0.9800000,-0.0095415,-0.0000330,-0.1740319,-0.0095415,-0.0076477,-0.0224540
0.9825000,0.9825000,0.9825000,-0.0093941,-0.0000328,-0.1726916,-0.0093941,-0.0075300,-0.0221070
0.9850000,0.9850000,0.9850000,-0.0092494,-0.0000326,-0.1713651,-0.0092494,-0.0074145,-0.0217662
0.9875000,0.9875000,0.9875000,-0.0091073,-0.0000324,-0.1700522,-0.0091073,-0.0073011,-0.0214315
0.9900000,0.9900000,0.9900000,-0.0089677,-0.0000321,-0.1687527,-0.0089677,-0.0071896,-0.0211028
0.9925000,0.9925000,0.9925000,-0.0088306,-0.0000319,-0.1674664,-0.0088306,-0.0070802,-0.0207800
0.9950000,0.9950000,0.9950000,-0.0086960,-0.0000317,-0.1661932,-0.0086960,-0.0069727,-0.0204629
0.9975000,0.9975000,0.9975000,-0.0085638,-0.0000315,-0.1649329,-0.0085638,-0.0068671,-0.0201515
1.0000000,1.0000000,1.0000000,-0.0084339,-0.0000313,-0.1636853,-0.0084339,-0.0067634,-0.0198455
1.0025000,1.0025000,1.0025000,-0.0083063,-0.0000311,-0.1624504,-0.0083063,-0.0066615,-0.0195450
1.0050000,1.0050000,1.0050000,-0.0081809,-0.0000309,-0.1612278,-0.0081809,-0.0065615,-0.0192498
1.0075000,1.0075000,1.0075000,-0.0080578,-0.0000306,-0.1600175,-0.0080578,-0.0064631,-0.0189598
1.0100000,1.0100000,1.0100000,-0.0079368,-0.0000304,-0.1588193,-0.0079368,-0.0063665,-0.0186748
1.0125000,1.0125000,1.0125000,-0.0078179,-0.0000302,-0.1576331,-0.0078179,-0.0062716,-0.0183949
1.0150000,1.0150000,1.0150000,-0.0077012,-0.0000300,-0.1564587,-0.0077012,-0.0061783,-0.0181198
1.0175000,1.0175000,1.0175000,-0.0075864,-0.0000298,-0.1552960,-0.0075864,-0.0060867,-0.0178495
1.0200000,1.0200000,1.0200000,-0.0074736,-0.0000296,-0.1541448,-0.0074736,-0.0059967,-0.0175839
1.0225000,1.0225000,1.0225000,-0.0073628,-0.0000294,-0.1530049,-0.0073628,-0.0059082,-0.0173229
1.0250000,1.0250000,1.0250000,-0.0072540,-0.0000292,-0.1518763,-0.0072540,-0.0058212,-0.0170664
1.0275000,1.0275000,1.0275000,-0.0071469,-0.0000290,-0.1507588,-0.0071469,-0.0057357,-0.0168144
1.0300000,1.0300000,1.0300000,-0.0070418,-0.0000288,-0.1496523,-0.0070418,-0.0056517,-0.0165666
1.0325000,1.0325000,1.0325000,-0.0069384,-0.0000287,-0.1485565,-0.0069384,-0.0055692,-0.0163232
1.0350000,1.0350000,1.0350000,-0.0068368,-0.0000285,-0.1474715,-0.0068368,-0.0054880,-0.0160838
1.0375000,1.0375000,1.0375000,-0.0067369,-0.0000283,-0.1463971,-0.0067369,-0.0054082,-0.0158486
1.0400000,1.0400000,1.0400000,-0.0066388,-0.0000281,-0.1453330,-0.0066388,-0.0053298,-0.0156174
1.0425000,1.0425000,1.0425000,-0.0065423,-0.0000279,-0.1442793,-0.0065423,-0.0052527,-0.0153901
1.0450000,1.0450000,1.0450000,-0.0064474,-0.0000277,-0.1432358,-0.0064474,-0.0051770,-0.0151666
1.0475000,1.0475000,1.0475000,-0.0063542,-0.0000275,-0.1422023,-0.0063542,-0.0051025,-0.0149470
1.0500000,1.0500000,1.0500000,-0.0062625,-0.0000274,-0.1411788,-0.0062625,-0.0050292,-0.0147310
1.0525000,1.0525000,1.0525000,-0.0061723,-0.0000272,-0.1401651,-0.0061723,-0.0049572,-0.0145187
1.0550000,1.0550000,1.0550000,-0.0060837,-0.0000270,-0.1391611,-0.0060837,-0.0048864,-0.0143099
1.0575000,1.0575000,1.0575000,-0.0059966,-0.0000268,-0.1381667,-0.0059966,-0.0048168,-0.0141046
1.0600000,1.0600000,1.0600000,-0.0059109,-0.0000267,-0.1371818,-0.0059109,-0.0047483,-0.0139028
1.0625000,1.0625000,1.0625000,-0.0058266,-0.0000265,-0.1362062,-0.0058266,-0.0046810,-0.0137043
1.0650000,1.0650000,1.0650000,-0.0057438,-0.0000263,-0.1352399,-0.0057438,-0.0046148,-0.0135091
1.0675000,1.0675000,1.0675000,-0.0056623,-0.0000261,-0.1342827,-0.0056623,-0.0045496,-0.0133172
1.0700000,1.0700000,1.0700000,-0.0055821,-0.0000260,-0.1333345,-0.0055821,-0.0044856,-0.0131284
1.0725000,1.0725000,1.0725000,-0.0055033,-0.0000258,-0.1323953,-0.0055033,-0.0044226,-0.0129427
1.0750000,1.0750000,1.0750000,-0.0054258,-0.0000256,-0.1314649,-0.0054258,-0.0043607,-0.0127601
1.0775000,1.0775000,1.0775000,-0.0053496,-0.0000255,-0.1305432,-0.0053496,-0.0042997,-0.0125805
1.0800000,1.0800000,1.0800000,-0.0052746,-0.0000253,-0.1296301,-0.0052746,-0.0042398,-0.0124038
1.0825000,1.0825000,1.0825000,-0.0052008,-0.0000252,-0.1287255,-0.0052008,-0.0041808,-0.0122301
1.0850000,1.0850000,1.0850000,-0.0051282,-0.0000250,-0.1278294,-0.0051282,-0.0041228,-0.0120591
1.0875000,1.0875000,1.0875000,-0.0050568,-0.0000248,-0.1269416,-0.0050568,-0.0040657,-0.0118910
1.0900000,1.0900000,1.0900000,-0.0049866,-0.0000247,-0.1260619,-0.0049866,-0.0040096,-0.0117256
1.0925000,1.0925000,1.0925000,-0.0049175,-0.0000245,-0.1251905,-0.0049175,-0.0039544,-0.0115628
1.0950000,1.0950000,1.0950000,-0.0048495,-0.0000244,-0.1243270,-0.0048495,-0.0039000,-0.0114027
1.0975000,1.0975000,1.0975000,-0.0047827,-0.0000242,-0.1234715,-0.0047827,-0.0038466,-0.0112451
1.1000000,1.1000000,1.1000000,-0.0047169,-0.0000241,-0.1226238,-0.0047169,-0.0037940,-0.0110901
1.1025000,1.1025000,1.1025000,-0.0046521,-0.0000239,-0.1217839,-0.0046521,-0.0037422,-0.0109376
1.1050000,1.1050000,1.1050000,-0.0045884,-0.0000238,-0.1209517,-0.0045884,-0.0036912,-0.0107876
1.1075000,1.1075000,1.1075000,-0.0045257,-0.0000236,-0.1201270,-0.0045257,-0.0036411,-0.0106399
1.1100000,1.1100000,1.1100000,-0.0044640,-0.0000235,-0.1193098,-0.0044640,-0.0035918,-0.0104946
1.1125000,1.1125000,1.1125000,-0.0044033,-0.0000233,-0.1185001,-0.0044033,-0.0035432,-0.0103515
1.1150000,1.1150000,1.1150000,-0.0043435,-0.0000232,-0.1176977,-0.0043435,-0.0034954,-0.0102108
1.1175000,1.1175000,1.1175000,-0.0042847,-0.0000230,-0.1169025,-0.0042847,-0.0034484,-0.0100723
1.1200000,1.1200000,1.1200000,-0.0042269,-0.0000229,-0.1161144,-0.0042269,-0.0034021,-0.0099360
1.1225000,1.1225000,1.1225000,-0.0041699,-0.0000227,-0.1153335,-0.0041699,-0.0033566,-0.0098018
1.1250000,1.1250000,1.1250000,-0.0041138,-0.0000226,-0.1145596,-0.0041138,-0.0033117,-0.0096697
1.1275000,1.1275000,1.1275000,-0.0040586,-0.0000225,-0.1137925,-0.0040586,-0.0032676,-0.0095397
1.1300000,1.1300000,1.1300000,-0.0040043,-0.0000223,-0.1130324,-0.0040043,-0.0032241,-0.0094117
1.1325000,1.1325000,1.1325000,-0.0039508,-0.0000222,-0.1122790,-0.0039508,-0.0031813,-0.0092858
1.1350000,1.1350000,1.1350000,-0.0038982,-0.0000221,-0.1115323,-0.0038982,-0.0031392,-0.0091618
1.1375000,1.1375000,1.1375000,-0.0038463,-0.0000219,-0.1107922,-0.0038463,-0.0030978,-0.0090397
1.1400000,1.1400000,1.1400000,-0.0037953,-0.0000218,-0.1100586,-0.0037953,-0.0030569,-0.0089195
1.1425000,1.1425000,1.1425000,-0.0037451,-0.0000217,-0.1093316,-0.0037451,-0.0030168,-0.0088012
1.1450000,1.1450000,1.1450000,-0.0036956,-0.0000215,-0.1086109,-0.0036956,-0.0029772,-0.0086847
1.1475000,1.1475000,1.1475000,-0.0036469,-0.0000214,-0.1078966,-0.0036469,-0.0029382,-0.0085700
1.1500000,1.1500000,1.1500000,-0.0035990,-0.0000213,-0.1071885,-0.0035990,-0.0028998,-0.0084571
1.1525000,1.1525000,1.1525000,-0.0035518,-0.0000211,-0.1064866,-0.0035518,-0.0028621,-0.0083459
1.1550000,1.1550000,1.1550000,-0.0035053,-0.0000210,-0.1057909,-0.0035053,-0.0028249,-0.0082364
1.1575000,1.1575000,1.1575000,-0.0034595,-0.0000209,-0.1051012,-0.0034595,-0.0027882,-0.0081285
1.1600000,1.1600000,1.1600000,-0.0034144,-0.0000208,-0.1044175,-0.0034144,-0.0027521,-0.0080224
1.1625000,1.1625000,1.1625000,-0.0033700,-0.0000206,-0.1037397,-0.0033700,-0.0027166,-0.0079178
1.1650000,1.1650000,1.1650000,-0.0033263,-0.0000205,-0.1030678,-0.0033263,-0.0026816,-0.0078148
1.1675000,1.1675000,1.1675000,-0.0032832,-0.0000204,-0.1024017,-0.0032832,-0.0026471,-0.0077134
1.1700000,1.1700000,1.1700000,-0.0032408,-0.0000203,-0.1017414,-0.0032408,-0.0026132,-0.0076135
1.1725000,1.1725000,1.1725000,-0.0031990,-0.0000201,-0.1010867,-0.0031990,-0.0025797,-0.0075151
1.1750000,1.1750000,1.1750000,-0.0031578,-0.0000200,-0.1004376,-0.0031578,-0.0025468,-0.0074182
1.1775000,1.1775000,1.1775000,-0.0031173,-0.0000199,-0.0997941,-0.0031173,-0.0025143,-0.0073227
1.1800000,1.1800000,1.1800000,-0.0030774,-0.0000198,-0.0991561,-0.0030774,-0.0024824,-0.0072287
1.1825000,1.1825000,1.1825000,-0.0030381,-0.0000197,-0.0985235,-0.0030381,-0.0024509,-0.0071361
1.1850000,1.1850000,1.1850000,-0.0029993,-0.0000195,-0.0978963,-0.0029993,-0.0024199,-0.0070449
1.1875000,1.1875000,1.1875000,-0.0029612,-0.0000194,-0.0972744,-0.0029612,-0.0023893,-0.0069550
1.1900000,1.1900000,1.1900000,-0.0029236,-0.0000193,-0.0966578,-0.0029236,-0.0023592,-0.0068665
1.1925000,1.1925000,1.1925000,-0.0028865,-0.0000192,-0.0960464,-0.0028865,-0.0023295,-0.0067792
1.1950000,1.1950000,1.1950000,-0.0028500,-0.0000191,-0.0954402,-0.0028500,-0.0023003,-0.0066933
1.1975000,1.1975000,1.1975000,-0.0028141,-0.0000190,-0.0948390,-0.0028141,-0.0022715,-0.0066086
1.2000000,1.2000000,1.2000000,-0.0027786,-0.0000189,-0.0942429,-0.0027786,-0.0022431,-0.0065252
1.2025000,1.2025000,1.2025000,-0.0027437,-0.0000188,-0.0936518,-0.0027437,-0.0022152,-0.0064430
1.2050000,1.2050000,1.2050000,-0.0027093,-0.0000186,-0.0930657,-0.0027093,-0.0021876,-0.0063620
1.2075000,1.2075000,1.2075000,-0.0026754,-0.0000185,-0.0924844,-0.0026754,-0.0021605,-0.0062822
1.2100000,1.2100000,1.2100000,-0.0026420,-0.0000184,-0.0919079,-0.0026420,-0.0021337,-0.0062035
1.2125000,1.2125000,1.2125000,-0.0026091,-0.0000183,-0.0913363,-0.0026091,-0.0021073,-0.0061260
1.2150000,1.2150000,1.2150000,-0.0025767,-0.0000182,-0.0907694,-0.0025767,-0.0020814,-0.0060497
1.2175000,1.2175000,1.2175000,-0.0025447,-0.0000181,-0.0902072,-0.0025447,-0.0020558,-0.0059744
1.2200000,1.2200000,1.2200000,-0.0025132,-0.0000180,-0.0896496,-0.0025132,-0.0020305,-0.0059002
1.2225000,1.2225000,1.2225000,-0.0024822,-0.0000179,-0.0890966,-0.0024822,-0.0020056,-0.0058271
1.2250000,1.2250000,1.2250000,-0.0024515,-0.0000178,-0.0885482,-0.0024515,-0.0019811,-0.0057551
1.2275000,1.2275000,1.2275000,-0.0024214,-0.0000177,-0.0880043,-0.0024214,-0.0019569,-0.0056841
1.2300000,1.2300000,1.2300000,-0.0023917,-0.0000176,-0.0874648,-0.0023917,-0.0019331,-0.0056141
1.2325000,1.2325000,1.2325000,-0.0023624,-0.0000175,-0.0869297,-0.0023624,-0.0019096,-0.0055451
1.2350000,1.2350000,1.2350000,-0.0023335,-0.0000174,-0.0863990,-0.0023335,-0.0018865,-0.0054771
1.2375000,1.2375000,1.2375000,-0.0023050,-0.0000173,-0.0858726,-0.0023050,-0.0018637,-0.0054101
1.2400000,1.2400000,1.2400000,-0.0022769,-0.0000172,-0.0853505,-0.0022769,-0.0018412,-0.0053440
1.2425000,1.2425000,1.2425000,-0.0022493,-0.0000171,-0.0848326,-0.0022493,-0.0018190,-0.0052789
1.2450000,1.2450000,1.2450000,-0.0022220,-0.0000170,-0.0843189,-0.0022220,-0.0017971,-0.0052147
1.2475000,1.2475000,1.2475000,-0.0021951,-0.0000169,-0.0838094,-0.0021951,-0.0017756,-0.0051514
1.2500000,1.2500000,1.2500000,-0.0021686,-0.0000168,-0.0833039,-0.0021686,-0.0017543,-0.0050889
1.2525000,1.2525000,1.2525000,-0.0021424,-0.0000167,-0.0828026,-0.0021424,-0.0017334,-0.0050274
1.2550000,1.2550000,1.2550000,-0.0021167,-0.0000166,-0.0823052,-0.0021167,-0.0017127,-0.0049668
1.2575000,1.2575000,1.2575000,-0.0020913,-0.0000165,-0.0818118,-0.0020913,-0.0016923,-0.0049069
1.2600000,1.2600000,1.2600000,-0.0020662,-0.0000164,-0.0813224,-0.0020662,-0.0016722,-0.0048480
1.2625000,1.2625000,1.2625000,-0.0020415,-0.0000163,-0.0808369,-0.0020415,-0.0016524,-0.0047898
1.2650000,1.2650000,1.2650000,-0.0020171,-0.0000163,-0.0803552,-0.0020171,-0.0016329,-0.0047325
1.2675000,1.2675000,1.2675000,-0.0019931,-0.0000162,-0.0798774,-0.0019931,-0.0016136,-0.0046760
1.2700000,1.2700000,1.2700000,-0.0019694,-0.0000161,-0.0794033,-0.0019694,-0.0015946,-0.0046202
1.2725000,1.2725000,1.2725000,-0.0019461,-0.0000160,-0.0789330,-0.0019461,-0.0015759,-0.0045652
1.2750000,1.2750000,1.2750000,-0.0019230,-0.0000159,-0.0784664,-0.0019230,-0.0015574,-0.0045110
1.2775000,1.2775000,1.2775000,-0.0019003,-0.0000158,-0.0780035,-0.0019003,-0.0015392,-0.0044575
1.2800000,1.2800000,1.2800000,-0.0018779,-0.0000157,-0.0775442,-0.0018779,-0.0015212,-0.0044048
1.2825000,1.2825000,1.2825000,-0.0018558,-0.0000156,-0.0770886,-0.0018558,-0.0015035,-0.0043528
1.2850000,1.2850000,1.2850000,-0.0018340,-0.0000155,-0.0766365,-0.0018340,-0.0014860,-0.0043015
1.2875000,1.2875000,1.2875000,-0.0018125,-0.0000155,-0.0761879,-0.0018125,-0.0014687,-0.0042509
1.2900000,1.2900000,1.2900000,-0.0017913,-0.0000154,-0.0757428,-0.0017913,-0.0014517,-0.0042010
1.2925000,1.2925000,1.2925000,-0.0017704,-0.0000153,-0.0753012,-0.0017704,-0.0014349,-0.0041518
1.2950000,1.2950000,1.2950000,-0.0017498,-0.0000152,-0.0748630,-0.0017498,-0.0014184,-0.0041033
1.2975000,1.2975000,1.2975000,-0.0017294,-0.0000151,-0.0744283,-0.0017294,-0.0014021,-0.0040554
1.3000000,1.3000000,1.3000000,-0.0017094,-0.0000150,-0.0739969,-0.0017094,-0.0013860,-0.0040082
1.3025000,1.3025000,1.3025000,-0.0016896,-0.0000150,-0.0735688,-0.0016896,-0.0013701,-0.0039616
1.3050000,1.3050000,1.3050000,-0.0016700,-0.0000149,-0.0731440,-0.0016700,-0.0013544,-0.0039156
1.3075000,1.3075000,1.3075000,-0.0016508,-0.0000148,-0.0727225,-0.0016508,-0.0013389,-0.0038703
1.3100000,1.3100000,1.3100000,-0.0016318,-0.0000147,-0.0723043,-0.0016318,-0.0013237,-0.0038256
1.3125000,1.3125000,1.3125000,-0.0016130,-0.0000146,-0.0718892,-0.0016130,-0.0013086,-0.0037814
1.3150000,1.3150000,1.3150000,-0.0015945,-0.0000146,-0.0714773,-0.0015945,-0.0012937,-0.0037379
1.3175000,1.3175000,1.3175000,-0.0015763,-0.0000145,-0.0710686,-0.0015763,-0.0012791,-0.0036949
1.3200000,1.3200000,1.3200000,-0.0015582,-0.0000144,-0.0706629,-0.0015582,-0.0012646,-0.0036526
1.3225000,1.3225000,1.3225000,-0.0015405,-0.0000143,-0.0702604,-0.0015405,-0.0012503,-0.0036107
1.3250000,1.3250000,1.3250000,-0.0015229,-0.0000142,-0.0698609,-0.0015229,-0.0012363,-0.0035695
1.3275000,1.3275000,1.3275000,-0.0015056,-0.0000142,-0.0694645,-0.0015056,-0.0012224,-0.0035288
1.3300000,1.3300000,1.3300000,-0.0014886,-0.0000141,-0.0690710,-0.0014886,-0.0012087,-0.0034886
1.3325000,1.3325000,1.3325000,-0.0014717,-0.0000140,-0.0686805,-0.0014717,-0.0011951,-0.0034490
1.3350000,1.3350000,1.3350000,-0.0014551,-0.0000139,-0.0682930,-0.0014551,-0.0011818,-0.0034099
1.3375000,1.3375000,1.3375000,-0.0014387,-0.0000139,-0.0679084,-0.0014387,-0.0011686,-0.0033713
1.3400000,1.3400000,1.3400000,-0.0014225,-0.0000138,-0.0675266,-0.0014225,-0.0011556,-0.0033332
1.3425000,1.3425000,1.3425000,-0.0014065,-0.0000137,-0.0671477,-0.0014065,-0.0011427,-0.0032956
1.3450000,1.3450000,1.3450000,-0.0013907,-0.0000137,-0.0667717,-0.0013907,-0.0011301,-0.0032585
1.3475000,1.3475000,1.3475000,-0.0013752,-0.0000136,-0.0663985,-0.0013752,-0.0011176,-0.0032219
1.3500000,1.3500000,1.3500000,-0.0013598,-0.0000135,-0.0660280,-0.0013598,-0.0011052,-0.0031858
1.3525000,1.3525000,1.3525000,-0.0013447,-0.0000134,-0.0656603,-0.0013447,-0.0010930,-0.0031501
1.3550000,1.3550000,1.3550000,-0.0013297,-0.0000134,-0.0652953,-0.0013297,-0.0010810,-0.0031149
1.3575000,1.3575000,1.3575000,-0.0013149,-0.0000133,-0.0649330,-0.0013149,-0.0010691,-0.0030802
1.3600000,1.3600000,1.3600000,-0.0013003,-0.0000132,-0.0645735,-0.0013003,-0.0010574,-0.0030459
1.3625000,1.3625000,1.3625000,-0.0012860,-0.0000132,-0.0642165,-0.0012860,-0.0010459,-0.0030121
1.3650000,1.3650000,1.3650000,-0.0012718,-0.0000131,-0.0638622,-0.0012718,-0.0010344,-0.0029787
1.3675000,1.3675000,1.3675000,-0.0012577,-0.0000130,-0.0635105,-0.0012577,-0.0010232,-0.0029457
1.3700000,1.3700000,1.3700000,-0.0012439,-0.0000130,-0.0631614,-0.0012439,-0.0010120,-0.0029131
1.3725000,1.3725000,1.3725000,-0.0012302,-0.0000129,-0.0628148,-0.0012302,-0.0010011,-0.0028810
1.3750000,1.3750000,1.3750000,-0.0012167,-0.0000128,-0.0624708,-0.0012167,-0.0009902,-0.0028493
1.3775000,1.3775000,1.3775000,-0.0012034,-0.0000128,-0.0621293,-0.0012034,-0.0009795,-0.0028180
1.3800000,1.3800000,1.3800000,-0.0011903,-0.0000127,-0.0617902,-0.0011903,-0.0009689,-0.0027871
1.3825000,1.3825000,1.3825000,-0.0011773,-0.0000126,-0.0614537,-0.0011773,-0.0009585,-0.0027565
1.3850000,1.3850000,1.3850000,-0.0011645,-0.0000126,-0.0611196,-0.0011645,-0.0009482,-0.0027264
1.3875000,1.3875000,1.3875000,-0.0011518,-0.0000125,-0.0607879,-0.0011518,-0.0009380,-0.0026967
1.3900000,1.3900000,1.3900000,-0.0011394,-0.0000124,-0.0604586,-0.0011394,-0.0009280,-0.0026673
1.3925000,1.3925000,1.3925000,-0.0011270,-0.0000124,-0.0601316,-0.0011270,-0.0009180,-0.0026383
1.3950000,1.3950000,1.3950000,-0.0011148,-0.0000123,-0.0598071,-0.0011148,-0.0009083,-0.0026097
1.3975000,1.3975000,1.3975000,-0.0011028,-0.0000122,-0.0594848,-0.0011028,-0.0008986,-0.0025814
1.4000000,1.4000000,1.4000000,-0.0010910,-0.0000122,-0.0591649,-0.0010910,-0.0008890,-0.0025535
1.4025000,1.4025000,1.4025000,-0.0010792,-0.0000121,-0.0588473,-0.0010792,-0.0008796,-0.0025259
1.4050000,1.4050000,1.4050000,-0.0010677,-0.0000120,-0.0585319,-0.0010677,-0.0008703,-0.0024987
1.4075000,1.4075000,1.4075000,-0.0010562,-0.0000120,-0.0582188,-0.0010562,-0.0008611,-0.0024718
1.4100000,1.4100000,1.4100000,-0.0010449,-0.0000119,-0.0579080,-0.0010449,-0.0008520,-0.0024453
1.4125000,1.4125000,1.4125000,-0.0010338,-0.0000119,-0.0575993,-0.0010338,-0.0008430,-0.0024191
1.4150000,1.4150000,1.4150000,-0.0010228,-0.0000118,-0.0572929,-0.0010228,-0.0008342,-0.0023932
1.4175000,1.4175000,1.4175000,-0.0010119,-0.0000117,-0.0569886,-0.0010119,-0.0008254,-0.0023677
1.4200000,1.4200000,1.4200000,-0.0010012,-0.0000117,-0.0566864,-0.0010012,-0.0008168,-0.0023424
1.4225000,1.4225000,1.4225000,-0.0009906,-0.0000116,-0.0563864,-0.0009906,-0.0008082,-0.0023175
1.4250000,1.4250000,1.4250000,-0.0009801,-0.0000116,-0.0560886,-0.0009801,-0.0007998,-0.0022929
1.4275000,1.4275000,1.4275000,-0.0009697,-0.0000115,-0.0557928,-0.0009697,-0.0007915,-0.0022686
1.4300000,1.4300000,1.4300000,-0.0009595,-0.0000115,-0.0554991,-0.0009595,-0.0007832,-0.0022446
1.4325000,1.4325000,1.4325000,-0.0009494,-0.0000114,-0.0552074,-0.0009494,-0.0007751,-0.0022208
1.4350000,1.4350000,1.4350000,-0.0009395,-0.0000113,-0.0549178,-0.0009395,-0.0007671,-0.0021974
1.4375000,1.4375000,1.4375000,-0.0009296,-0.0000113,-0.0546302,-0.0009296,-0.0007591,-0.0021743
1.4400000,1.4400000,1.4400000,-0.0009199,-0.0000112,-0.0543447,-0.0009199,-0.0007513,-0.0021514
1.4425000,1.4425000,1.4425000,-0.0009103,-0.0000112,-0.0540611,-0.0009103,-0.0007436,-0.0021288
1.4450000,1.4450000,1.4450000,-0.0009008,-0.0000111,-0.0537795,-0.0009008,-0.0007359,-0.0021065
1.4475000,1.4475000,1.4475000,-0.0008914,-0.0000111,-0.0534998,-0.0008914,-0.0007284,-0.0020845
1.4500000,1.4500000,1.4500000,-0.0008822,-0.0000110,-0.0532221,-0.0008822,-0.0007209,-0.0020627
1.4525000,1.4525000,1.4525000,-0.0008730,-0.0000110,-0.0529463,-0.0008730,-0.0007135,-0.0020412
1.4550000,1.4550000,1.4550000,-0.0008640,-0.0000109,-0.0526724,-0.0008640,-0.0007063,-0.0020200
1.4575000,1.4575000,1.4575000,-0.0008550,-0.0000108,-0.0524004,-0.0008550,-0.0006991,-0.0019990
1.4600000,1.4600000,1.4600000,-0.0008462,-0.0000108,-0.0521303,-0.0008462,-0.0006919,-0.0019783
1.4625000,1.4625000,1.4625000,-0.0008375,-0.0000107,-0.0518620,-0.0008375,-0.0006849,-0.0019578
1.4650000,1.4650000,1.4650000,-0.0008289,-0.0000107,-0.0515956,-0.0008289,-0.0006780,-0.0019376
1.4675000,1.4675000,1.4675000,-0.0008204,-0.0000106,-0.0513309,-0.0008204,-0.0006711,-0.0019176
1.4700000,1.4700000,1.4700000,-0.0008120,-0.0000106,-0.0510681,-0.0008120,-0.0006643,-0.0018978
1.4725000,1.4725000,1.4725000,-0.0008037,-0.0000105,-0.0508071,-0.0008037,-0.0006576,-0.0018783
1.4750000,1.4750000,1.4750000,-0.0007955,-0.0000105,-0.0505479,-0.0007955,-0.0006510,-0.0018591
1.4775000,1.4775000,1.4775000,-0.0007874,-0.0000104,-0.0502904,-0.0007874,-0.0006445,-0.0018400
1.4800000,1.4800000,1.4800000,-0.0007794,-0.0000104,-0.0500347,-0.0007794,-0.0006380,-0.0018212
1.4825000,1.4825000,1.4825000,-0.0007714,-0.0000103,-0.0497807,-0.0007714,-0.0006316,-0.0018026
1.4850000,1.4850000,1.4850000,-0.0007636,-0.0000103,-0.0495285,-0.0007636,-0.0006253,-0.0017842
1.4875000,1.4875000,1.4875000,-0.0007559,-0.0000102,-0.0492779,-0.0007559,-0.0006191,-0.0017660
1.4900000,1.4900000,1.4900000,-0.0007482,-0.0000102,-0.0490290,-0.0007482,-0.0006129,-0.0017481
1.4925000,1.4925000,1.4925000,-0.0007407,-0.0000101,-0.0487818,-0.0007407,-0.0006068,-0.0017304
1.4950000,1.4950000,1.4950000,-0.0007332,-0.0000101,-0.0485363,-0.0007332,-0.0006008,-0.0017128
1.4975000,1.4975000,1.4975000,-0.0007259,-0.0000100,-0.0482924,-0.0007259,-0.0005949,-0.0016955
1.5000000,1.5000000,1.5000000,-0.0007186,-0.0000100,-0.0480501,-0.0007186,-0.0005890,-0.0016784
1.5025000,1.5025000,1.5025000,-0.0007114,-0.0000099,-0.0478095,-0.0007114,-0.0005832,-0.0016615
1.5050000,1.5050000,1.5050000,-0.0007043,-0.0000099,-0.0475704,-0.0007043,-0.0005774,-0.0016448
1.5075000,1.5075000,1.5075000,-0.0006972,-0.0000098,-0.0473330,-0.0006972,-0.0005718,-0.0016283
1.5100000,1.5100000,1.5100000,-0.0006903,-0.0000098,-0.0470971,-0.0006903,-0.0005662,-0.0016119
1.5125000,1.5125000,1.5125000,-0.0006834,-0.0000097,-0.0468628,-0.0006834,-0.0005606,-0.0015958
1.5150000,1.5150000,1.5150000,-0.0006766,-0.0000097,-0.0466301,-0.0006766,-0.0005551,-0.0015799
1.5175000,1.5175000,1.5175000,-0.0006699,-0.0000097,-0.0463989,-0.0006699,-0.0005497,-0.0015641
1.5200000,1.5200000,1.5200000,-0.0006633,-0.0000096,-0.0461692,-0.0006633,-0.0005443,-0.0015485
1.5225000,1.5225000,1.5225000,-0.0006567,-0.0000096,-0.0459411,-0.0006567,-0.0005390,-0.0015331
1.5250000,1.5250000,1.5250000,-0.0006502,-0.0000095,-0.0457144,-0.0006502,-0.0005338,-0.0015179
1.5275000,1.5275000,1.5275000,-0.0006438,-0.0000095,-0.0454892,-0.0006438,-0.0005286,-0.0015028
1.5300000,1.5300000,1.5300000,-0.0006375,-0.0000094,-0.0452656,-0.0006375,-0.0005235,-0.0014880
1.5325000,1.5325000,1.5325000,-0.0006312,-0.0000094,-0.0450433,-0.0006312,-0.0005185,-0.0014733
1.5350000,1.5350000,1.5350000,-0.0006250,-0.0000093,-0.0448226,-0.0006250,-0.0005135,-0.0014587
1.5375000,1.5375000,1.5375000,-0.0006189,-0.0000093,-0.0446032,-0.0006189,-0.0005085,-0.0014444
1.5400000,1.5400000,1.5400000,-0.0006129,-0.0000093,-0.0443854,-0.0006129,-0.0005036,-0.0014302
1.5425000,1.5425000,1.5425000,-0.0006069,-0.0000092,-0.0441689,-0.0006069,-0.0004988,-0.0014161
1.5450000,1.5450000,1.5450000,-0.0006010,-0.0000092,-0.0439538,-0.0006010,-0.0004940,-0.0014022
1.5475000,1.5475000,1.5475000,-0.0005951,-0.0000091,-0.0437401,-0.0005951,-0.0004893,-0.0013885
1.5500000,1.5500000,1.5500000,-0.0005893,-0.0000091,-0.0435278,-0.0005893,-0.0004846,-0.0013750
1.5525000,1.5525000,1.5525000,-0.0005836,-0.0000090,-0.0433169,-0.0005836,-0.0004800,-0.0013615
1.5550000,1.5550000,1.5550000,-0.0005780,-0.0000090,-0.0431074,-0.0005780,-0.0004754,-0.0013483
1.5575000,1.5575000,1.5575000,-0.0005724,-0.0000090,-0.0428992,-0.0005724,-0.0004709,-0.0013352
1.5600000,1.5600000,1.5600000,-0.0005669,-0.0000089,-0.0426923,-0.0005669,-0.0004665,-0.0013222
1.5625000,1.5625000,1.5625000,-0.0005614,-0.0000089,-0.0424868,-0.0005614,-0.0004620,-0.0013094
1.5650000,1.5650000,1.5650000,-0.0005560,-0.0000088,-0.0422826,-0.0005560,-0.0004577,-0.0012967
1.5675000,1.5675000,1.5675000,-0.0005507,-0.0000088,-0.0420796,-0.0005507,-0.0004534,-0.0012842
1.5700000,1.5700000,1.5700000,-0.0005454,-0.0000087,-0.0418780,-0.0005454,-0.0004491,-0.0012718
1.5725000,1.5725000,1.5725000,-0.0005402,-0.0000087,-0.0416777,-0.0005402,-0.0004449,-0.0012596
1.5750000,1.5750000,1.5750000,-0.0005350,-0.0000087,-0.0414787,-0.0005350,-0.0004407,-0.0012475
1.5775000,1.5775000,1.5775000,-0.0005299,-0.0000086,-0.0412809,-0.0005299,-0.0004366,-0.0012355
1.5800000,1.5800000,1.5800000,-0.0005249,-0.0000086,-0.0410844,-0.0005249,-0.0004325,-0.0012236
1.5825000,1.5825000,1.5825000,-0.0005199,-0.0000086,-0.0408891,-0.0005199,-0.0004284,-0.0012119
1.5850000,1.5850000,1.5850000,-0.0005149,-0.0000085,-0.0406951,-0.0005149,-0.0004244,-0.0012003
1.5875000,1.5875000,1.5875000,-0.0005100,-0.0000085,-0.0405022,-0.0005100,-0.0004205,-0.0011889
1.5900000,1.5900000,1.5900000,-0.0005052,-0.0000084,-0.0403107,-0.0005052,-0.0004166,-0.0011776
1.5925000,1.5925000,1.5925000,-0.0005004,-0.0000084,-0.0401203,-0.0005004,-0.0004127,-0.0011664
1.5950000,1.5950000,1.5950000,-0.0004957,-0.0000084,-0.0399311,-0.0004957,-0.0004089,-0.0011553
1.5975000,1.5975000,1.5975000,-0.0004911,-0.0000083,-0.0397431,-0.0004911,-0.0004051,-0.0011443
