# r[nm],d[nm],daligned[nm],U(d)[kj/mol],V(d)[e/nm],Uslab(d)[kJ/mol],UC(d)[kJ/mol],UK(d)[kJ/mol],UCl(d)[kJ/mol]
0.1875000,0.1875000,0.1875000,1627.9832134,-0.3950703,70.0381040,1627.9832134,1032.1999197,inf
0.1900000,0.1900000,0.1900000,1410.0337836,-0.3835978,61.9149908,1410.0337836,893.5364548,inf
0.1925000,0.1925000,0.1925000,1222.9377102,-0.3725349,54.8528943,1222.9377102,774.5657279,inf
0.1950000,0.1950000,0.1950000,1062.0994711,-0.3618649,48.7054471,1062.0994711,672.3497716,inf
0.1975000,0.1975000,0.1975000,923.6420900,-0.3515720,43.3469266,923.6420900,584.4104131,inf
0.2000000,0.2000000,0.2000000,804.2895940,-0.3416406,38.6686046,804.2895940,508.6540161,inf
0.2025000,0.2025000,0.2025000,701.2695169,-0.3320564,34.5757322,701.2695169,443.3090627,inf
0.2050000,0.2050000,0.2050000,612.2318951,-0.3228052,30.9851661,612.2318951,386.8742987,inf
0.2075000,0.2075000,0.2075000,535.1818579,-0.3138738,27.8236921,535.1818579,338.0755850,inf
0.2100000,0.2100000,0.2100000,468.4234402,-0.3052493,25.0271266,468.4234402,295.8299349,inf
0.2125000,0.2125000,0.2125000,410.5126741,-0.2969196,22.5401217,410.5126741,259.2154944,1704.8921078
0.2150000,0.2150000,0.2150000,360.2183658,-0.2888729,20.3162882,360.2183658,227.4464419,1496.8105737
0.2175000,0.2175000,0.2175000,316.4892480,-0.2810981,18.3180406,316.4892480,199.8519688,1315.5999472
0.2200000,0.2200000,0.2200000,278.4264280,-0.2735845,16.5157412,278.4264280,175.8586469,1157.6012904
0.2225000,0.2225000,0.2225000,245.2602438,-0.2663219,14.8862007,245.2602438,154.9756040,1019.6800871
0.2250000,0.2250000,0.2250000,216.3307920,-0.2593005,13.4109676,216.3307920,136.7820254,899.1473746
0.2275000,0.2275000,0.2275000,191.0715207,-0.2525109,12.0748499,191.0715207,120.9165761,793.6932790
0.2300000,0.2300000,0.2300000,168.9953779,-0.2459439,10.8648628,168.9953779,107.0684193,701.3309199
0.2325000,0.2325000,0.2325000,149.6830907,-0.2395907,9.7695610,149.6830907,94.9695794,620.3489997
0.2350000,0.2350000,0.2350000,132.7732170,-0.2334417,8.7786209,132.7732170,84.3884637,549.2716740
0.2375000,0.2375000,0.2375000,117.9536716,-0.2274863,7.8825630,117.9536716,75.1243966,486.8245383
0.2400000,0.2400000,0.2400000,104.9544905,-0.2217117,7.0725694,104.9544905,67.0030483,431.9057564
0.2425000,0.2425000,0.2425000,93.5416512,-0.2161019,6.3403913,93.5416512,59.8726540,383.5615226
0.2450000,0.2450000,0.2450000,83.5118122,-0.2106361,5.6783338,83.5118122,53.6009384,340.9651754
0.2475000,0.2475000,0.2475000,74.6878590,-0.2052887,5.0792762,74.6878590,48.0726754,303.3993984
0.2500000,0.2500000,0.2500000,66.9151640,-0.2000287,4.5366730,66.9151640,43.1877936,270.2410296
0.2525000,0.2525000,0.2525000,60.0584787,-0.1948204,4.0444892,60.0584787,38.8599046,240.9480825
0.2550000,0.2550000,0.2550000,53.9993911,-0.1896261,3.5970762,53.9993911,35.0150770,215.0486389
0.2575000,0.2575000,0.2575000,48.6342879,-0.1844091,3.1890459,48.6342879,31.5906666,192.1313336
0.2600000,0.2600000,0.2600000,43.8727553,-0.1791400,2.8152253,43.8727553,28.5340515,171.8371862
0.2625000,0.2625000,0.2625000,39.6363243,-0.1738024,2.4707327,39.6363243,25.8012189,153.8525765
0.2650000,0.2650000,0.2650000,35.8574313,-0.1683987,2.1511452,35.8574313,23.3552532,137.9031863
0.2675000,0.2675000,0.2675000,32.4784452,-0.1629514,1.8526814,32.4784452,21.1648521,123.7487605
0.2700000,0.2700000,0.2700000,29.4506309,-0.1575003,1.5723261,29.4506309,19.2030079,111.1785667
0.2725000,0.2725000,0.2725000,26.7329827,-0.1520945,1.3078589,26.7329827,17.4459536,100.0074573
0.2750000,0.2750000,0.2750000,24.2909515,-0.1467839,1.0577846,24.2909515,15.8724117,90.0724598
0.2775000,0.2775000,0.2775000,22.0951624,-0.1416108,0.8211749,22.0951624,14.4631205,81.2298343
0.2800000,0.2800000,0.2800000,20.1202438,-0.1366052,0.5974239,20.1202438,13.2005713,73.3525475
0.2825000,0.2825000,0.2825000,18.3438695,-0.1317830,0.3859287,18.3438695,12.0688771,66.3281237
0.2850000,0.2850000,0.2850000,16.7460564,-0.1271485,0.1857549,16.7460564,11.0536999,60.0568351
0.2875000,0.2875000,0.2875000,15.3087087,-0.1226964,-0.0045900,15.3087087,10.1421871,54.4502009
0.2900000,0.2900000,0.2900000,14.0153540,-0.1184161,-0.1871477,14.0153540,9.3228869,49.4297646
0.2925000,0.2925000,0.2925000,12.8510047,-0.1142941,-0.3642247,12.8510047,8.5856311,44.9261142
0.2950000,0.2950000,0.2950000,11.8020789,-0.1103164,-0.5379304,11.8020789,7.9213820,40.8781012
0.2975000,0.2975000,0.2975000,10.8563383,-0.1064697,-0.7097211,10.8563383,7.3220569,37.2321957
0.3000000,0.3000000,0.3000000,10.0028124,-0.1027423,-0.8801183,10.0028124,6.7803541,33.9419000
0.3025000,0.3025000,0.3025000,9.2316988,-0.0991236,-1.0486722,9.2316988,6.2896125,30.9671407
0.3050000,0.3050000,0.3050000,8.5342339,-0.0956040,-1.2141368,8.5342339,5.8437288,28.2735810
0.3075000,0.3075000,0.3075000,7.9025433,-0.0921730,-1.3747653,7.9025433,5.4371360,25.8318436
0.3100000,0.3100000,0.3100000,7.3294911,-0.0888189,-1.5286264,7.3294911,5.0648240,23.6166838
0.3125000,0.3125000,0.3125000,6.8085535,-0.0855279,-1.6738771,6.8085535,4.7223730,21.6061842
0.3150000,0.3150000,0.3150000,6.3337397,-0.0822856,-1.8089557,6.3337397,4.4059702,19.7810466
0.3175000,0.3175000,0.3175000,5.8995644,-0.0790781,-1.9326910,5.8995644,4.1123960,18.1240279
0.3200000,0.3200000,0.3200000,5.5010612,-0.0758953,-2.0443374,5.5010612,3.8389796,16.6195337
0.3225000,0.3225000,0.3225000,5.1338116,-0.0727318,-2.1435580,5.1338116,3.5835364,15.2533517
0.3250000,0.3250000,0.3250000,4.7939651,-0.0695886,-2.2303721,4.7939651,3.3442977,14.0124875
0.3275000,0.3275000,0.3275000,4.4782339,-0.0664720,-2.3050884,4.4782339,3.1198442,12.8850640
0.3300000,0.3300000,0.3300000,4.1838618,-0.0633928,-2.3682333,4.1838618,2.9090435,11.8602512
0.3325000,0.3325000,0.3325000,3.9085719,-0.0603642,-2.4204852,3.9085719,2.7109899,10.9282019
0.3350000,0.3350000,0.3350000,3.6505049,-0.0573999,-2.4626176,3.6505049,2.5249387,10.0799808
0.3375000,0.3375000,0.3375000,3.4081562,-0.0545129,-2.4954523,3.4081562,2.3502249,9.3074791
0.3400000,0.3400000,0.3400000,3.1803147,-0.0517145,-2.5198242,3.1803147,2.1861604,8.6033179
0.3425000,0.3425000,0.3425000,2.9660019,-0.0490129,-2.5365550,2.9660019,2.0319114,7.9607477
0.3450000,0.3450000,0.3450000,2.7644055,-0.0464136,-2.5464347,2.7644055,1.8863813,7.3735593
0.3475000,0.3475000,0.3475000,2.5747974,-0.0439177,-2.5502098,2.5747974,1.7481426,6.8360187
0.3500000,0.3500000,0.3500000,2.3964326,-0.0415212,-2.5485761,2.3964326,1.6154619,6.3428337
0.3525000,0.3525000,0.3525000,2.2284337,-0.0392135,-2.5421755,2.2284337,1.4864422,5.8891490
0.3550000,0.3550000,0.3550000,2.0696843,-0.0369765,-2.5315949,2.0696843,1.3592583,5.4705595
0.3575000,0.3575000,0.3575000,1.9187717,-0.0347858,-2.5173677,1.9187717,1.2324250,5.0831271
0.3600000,0.3600000,0.3600000,1.7740145,-0.0326127,-2.4999755,1.7740145,1.1050179,4.7233880
0.3625000,0.3625000,0.3625000,1.6335926,-0.0304296,-2.4798515,1.6335926,0.9767823,4.3883448
0.3650000,0.3650000,0.3650000,1.4957574,-0.0282155,-2.4573838,1.4957574,0.8481063,4.0754427
0.3675000,0.3675000,0.3675000,1.3590690,-0.0259609,-2.4329189,1.3590690,0.7198789,3.7825319
0.3700000,0.3700000,0.3700000,1.2225931,-0.0236704,-2.4067654,1.2225931,0.5932897,3.5078223
0.3725000,0.3725000,0.3725000,1.0860017,-0.0213621,-2.3791976,1.0860017,0.4696271,3.2498327
0.3750000,0.3750000,0.3750000,0.9495575,-0.0190638,-2.3504584,0.9495575,0.3501225,3.0073337
0.3775000,0.3775000,0.3775000,0.8139978,-0.0168076,-2.3207631,0.8139978,0.2358531,2.7792813
0.3800000,0.3800000,0.3800000,0.6803639,-0.0146247,-2.2903016,0.6803639,0.1276993,2.5647379
0.3825000,0.3825000,0.3825000,0.5498253,-0.0125420,-2.2592414,0.5498253,0.0263373,2.3627808
0.3850000,0.3850000,0.3850000,0.4235363,-0.0105795,-2.2277301,0.4235363,-0.0677494,2.1724068
0.3875000,0.3875000,0.3875000,0.3025397,-0.0087510,-2.1958972,0.3025397,-0.1542536,1.9924550
0.3900000,0.3900000,0.3900000,0.1877151,-0.0070638,-2.1638565,0.1877151,-0.2330268,1.8215705
0.3925000,0.3925000,0.3925000,0.0797589,-0.0055211,-2.1317074,0.0797589,-0.3040617,1.6582309
0.3950000,0.3950000,0.3950000,-0.0208158,-0.0041218,-2.0995368,-0.0208158,-0.3674755,1.5008387
0.3975000,0.3975000,0.3975000,-0.1136709,-0.0028624,-2.0674206,-0.1136709,-0.4234915,1.3478645
0.4000000,0.4000000,0.4000000,-0.1986297,-0.0017375,-2.0354246,-0.1986297,-0.4724197,1.1980057
0.4025000,0.4025000,0.4025000,-0.2756614,-0.0007399,-2.0036060,-0.2756614,-0.5146378,1.0503224
0.4050000,0.4050000,0.4050000,-0.3448634,0.0001385,-1.9720139,-0.3448634,-0.5505719,0.9043164
0.4075000,0.4075000,0.4075000,-0.4064428,0.0009065,-1.9406908,-0.4064428,-0.5806785,0.7599397
0.4100000,0.4100000,0.4100000,-0.4606957,0.0015731,-1.9096730,-0.4606957,-0.6054294,0.6175389
0.4125000,0.4125000,0.4125000,-0.5079883,0.0021476,-1.8789914,-0.5079883,-0.6252982,0.4777573
0.4150000,0.4150000,0.4150000,-0.5487368,0.0026391,-1.8486720,-0.5487368,-0.6407498,0.3414210
0.4175000,0.4175000,0.4175000,-0.5833902,0.0030561,-1.8187368,-0.5833902,-0.6522328,0.2094304
0.4200000,0.4200000,0.4200000,-0.6124149,0.0034069,-1.7892038,-0.6124149,-0.6601731,0.0826720
0.4225000,0.4225000,0.4225000,-0.6362814,0.0036991,-1.7600879,-0.6362814,-0.6649704,-0.0380468
0.4250000,0.4250000,0.4250000,-0.6554543,0.0039398,-1.7314010,-0.6554543,-0.6669959,-0.1520400
0.4275000,0.4275000,0.4275000,-0.6703836,0.0041354,-1.7031526,-0.6703836,-0.6665914,-0.2587661
0.4300000,0.4300000,0.4300000,-0.6814994,0.0042916,-1.6753496,-0.6814994,-0.6640691,-0.3578374
0.4325000,0.4325000,0.4325000,-0.6892074,0.0044136,-1.6479972,-0.6892074,-0.6597127,-0.4490183
0.4350000,0.4350000,0.4350000,-0.6938865,0.0045059,-1.6210989,-0.6938865,-0.6537782,-0.5322159
0.4375000,0.4375000,0.4375000,-0.6958877,0.0045728,-1.5946563,-0.6958877,-0.6464958,-0.6074660
0.4400000,0.4400000,0.4400000,-0.6955338,0.0046177,-1.5686701,-0.6955338,-0.6380713,-0.6749153
0.4425000,0.4425000,0.4425000,-0.6931194,0.0046438,-1.5431396,-0.6931194,-0.6286883,-0.7348028
0.4450000,0.4450000,0.4450000,-0.6889125,0.0046539,-1.5180630,-0.6889125,-0.6185097,-0.7874409
0.4475000,0.4475000,0.4475000,-0.6831554,0.0046503,-1.4934379,-0.6831554,-0.6076799,-0.8331970
0.4500000,0.4500000,0.4500000,-0.6760662,0.0046353,-1.4692608,-0.6760662,-0.5963262,-0.8724769
0.4525000,0.4525000,0.4525000,-0.6678408,0.0046105,-1.4455278,-0.6678408,-0.5845607,-0.9057104
0.4550000,0.4550000,0.4550000,-0.6586542,0.0045776,-1.4222342,-0.6586542,-0.5724818,-0.9333389
0.4575000,0.4575000,0.4575000,-0.6486626,0.0045379,-1.3993751,-0.6486626,-0.5601754,-0.9558050
0.4600000,0.4600000,0.4600000,-0.6380047,0.0044926,-1.3769450,-0.6380047,-0.5477166,-0.9735445
0.4625000,0.4625000,0.4625000,-0.6268037,0.0044428,-1.3549380,-0.6268037,-0.5351706,-0.9869802
0.4650000,0.4650000,0.4650000,-0.6151683,0.0043893,-1.3333482,-0.6151683,-0.5225939,-0.9965169
0.4675000,0.4675000,0.4675000,-0.6031945,0.0043329,-1.3121690,-0.6031945,-0.5100352,-1.0025389
0.4700000,0.4700000,0.4700000,-0.5909668,0.0042742,-1.2913940,-0.5909668,-0.4975364,-1.0054074
0.4725000,0.4725000,0.4725000,-0.5785592,0.0042137,-1.2710166,-0.5785592,-0.4851333,-1.0054595
0.4750000,0.4750000,0.4750000,-0.5660365,0.0041520,-1.2510300,-0.5660365,-0.4728564,-1.0030081
0.4775000,0.4775000,0.4775000,-0.5534553,0.0040895,-1.2314272,-0.5534553,-0.4607314,-0.9983418
0.4800000,0.4800000,0.4800000,-0.5408646,0.0040264,-1.2122013,-0.5408646,-0.4487799,-0.9917257
0.4825000,0.4825000,0.4825000,-0.5283070,0.0039632,-1.1933455,-0.5283070,-0.4370198,-0.9834021
0.4850000,0.4850000,0.4850000,-0.5158193,0.0039000,-1.1748527,-0.5158193,-0.4254657,-0.9735919
0.4875000,0.4875000,0.4875000,-0.5034329,0.0038370,-1.1567159,-0.5034329,-0.4141295,-0.9624956
0.4900000,0.4900000,0.4900000,-0.4911748,0.0037744,-1.1389283,-0.4911748,-0.4030207,-0.9502947
0.4925000,0.4925000,0.4925000,-0.4790677,0.0037123,-1.1214830,-0.4790677,-0.3921464,-0.9371534
0.4950000,0.4950000,0.4950000,-0.4671311,0.0036510,-1.1043730,-0.4671311,-0.3815121,-0.9232191
0.4975000,0.4975000,0.4975000,-0.4553808,0.0035904,-1.0875917,-0.4553808,-0.3711214,-0.9086244
0.5000000,0.5000000,0.5000000,-0.4438301,0.0035307,-1.0711322,-0.4438301,-0.3609768,-0.8934884
0.5025000,0.5025000,0.5025000,-0.4324898,0.0034719,-1.0549881,-0.4324898,-0.3510792,-0.8779172
0.5050000,0.5050000,0.5050000,-0.4213686,0.0034140,-1.0391528,-0.4213686,-0.3414287,-0.8620057
0.5075000,0.5075000,0.5075000,-0.4104729,0.0033572,-1.0236197,-0.4104729,-0.3320245,-0.8458383
0.5100000,0.5100000,0.5100000,-0.3998080,0.0033014,-1.0083827,-0.3998080,-0.3228649,-0.8294898
0.5125000,0.5125000,0.5125000,-0.3893773,0.0032466,-0.9934353,-0.3893773,-0.3139475,-0.8130268
0.5150000,0.5150000,0.5150000,-0.3791832,0.0031929,-0.9787716,-0.3791832,-0.3052695,-0.7965079
0.5175000,0.5175000,0.5175000,-0.3692266,0.0031402,-0.9643854,-0.3692266,-0.2968275,-0.7799847
0.5200000,0.5200000,0.5200000,-0.3595080,0.0030887,-0.9502708,-0.3595080,-0.2886178,-0.7635025
0.5225000,0.5225000,0.5225000,-0.3500265,0.0030381,-0.9364220,-0.3500265,-0.2806363,-0.7471011
0.5250000,0.5250000,0.5250000,-0.3407809,0.0029887,-0.9228333,-0.3407809,-0.2728787,-0.7308150
0.5275000,0.5275000,0.5275000,-0.3317692,0.0029402,-0.9094991,-0.3317692,-0.2653405,-0.7146744
0.5300000,0.5300000,0.5300000,-0.3229888,0.0028929,-0.8964140,-0.3229888,-0.2580169,-0.6987051
0.5325000,0.5325000,0.5325000,-0.3144369,0.0028465,-0.8835725,-0.3144369,-0.2509032,-0.6829294
0.5350000,0.5350000,0.5350000,-0.3061101,0.0028011,-0.8709694,-0.3061101,-0.2439943,-0.6673662
0.5375000,0.5375000,0.5375000,-0.2980048,0.0027567,-0.8585995,-0.2980048,-0.2372854,-0.6520316
0.5400000,0.5400000,0.5400000,-0.2901170,0.0027133,-0.8464579,-0.2901170,-0.2307715,-0.6369391
0.5425000,0.5425000,0.5425000,-0.2824427,0.0026708,-0.8345395,-0.2824427,-0.2244474,-0.6220996
0.5450000,0.5450000,0.5450000,-0.2749777,0.0026292,-0.8228396,-0.2749777,-0.2183084,-0.6075222
0.5475000,0.5475000,0.5475000,-0.2677174,0.0025886,-0.8113535,-0.2677174,-0.2123493,-0.5932140
0.5500000,0.5500000,0.5500000,-0.2606574,0.0025488,-0.8000765,-0.2606574,-0.2065652,-0.5791806
0.5525000,0.5525000,0.5525000,-0.2537932,0.0025099,-0.7890041,-0.2537932,-0.2009514,-0.5654260
0.5550000,0.5550000,0.5550000,-0.2471201,0.0024718,-0.7781319,-0.2471201,-0.1955029,-0.5519529
0.5575000,0.5575000,0.5575000,-0.2406335,0.0024345,-0.7674557,-0.2406335,-0.1902151,-0.5387629
0.5600000,0.5600000,0.5600000,-0.2343288,0.0023981,-0.7569712,-0.2343288,-0.1850834,-0.5258568
0.5625000,0.5625000,0.5625000,-0.2282014,0.0023624,-0.7466743,-0.2282014,-0.1801031,-0.5132343
0.5650000,0.5650000,0.5650000,-0.2222466,0.0023274,-0.7365609,-0.2222466,-0.1752698,-0.5008944
0.5675000,0.5675000,0.5675000,-0.2164599,0.0022933,-0.7266273,-0.2164599,-0.1705792,-0.4888353
0.5700000,0.5700000,0.5700000,-0.2108368,0.0022598,-0.7168695,-0.2108368,-0.1660269,-0.4770548
0.5725000,0.5725000,0.5725000,-0.2053729,0.0022270,-0.7072837,-0.2053729,-0.1616089,-0.4655501
0.5750000,0.5750000,0.5750000,-0.2000638,0.0021949,-0.6978665,-0.2000638,-0.1573210,-0.4543181
0.5775000,0.5775000,0.5775000,-0.1949053,0.0021635,-0.6886140,-0.1949053,-0.1531593,-0.4433551
0.5800000,0.5800000,0.5800000,-0.1898930,0.0021327,-0.6795230,-0.1898930,-0.1491200,-0.4326573
0.5825000,0.5825000,0.5825000,-0.1850228,0.0021026,-0.6705899,-0.1850228,-0.1451993,-0.4222205
0.5850000,0.5850000,0.5850000,-0.1802907,0.0020730,-0.6618115,-0.1802907,-0.1413935,-0.4120403
0.5875000,0.5875000,0.5875000,-0.1756927,0.0020441,-0.6531846,-0.1756927,-0.1376991,-0.4021122
0.5900000,0.5900000,0.5900000,-0.1712250,0.0020157,-0.6447058,-0.1712250,-0.1341126,-0.3924315
0.5925000,0.5925000,0.5925000,-0.1668837,0.0019879,-0.6363722,-0.1668837,-0.1306308,-0.3829933
0.5950000,0.5950000,0.5950000,-0.1626652,0.0019607,-0.6281807,-0.1626652,-0.1272503,-0.3737928
0.5975000,0.5975000,0.5975000,-0.1585658,0.0019340,-0.6201284,-0.1585658,-0.1239680,-0.3648250
0.6000000,0.6000000,0.6000000,-0.1545821,0.0019078,-0.6122124,-0.1545821,-0.1207809,-0.3560848
0.6025000,0.6025000,0.6025000,-0.1507106,0.0018821,-0.6044298,-0.1507106,-0.1176860,-0.3475674
0.6050000,0.6050000,0.6050000,-0.1469481,0.0018569,-0.5967780,-0.1469481,-0.1146805,-0.3392676
0.6075000,0.6075000,0.6075000,-0.1432911,0.0018322,-0.5892543,-0.1432911,-0.1117615,-0.3311804
0.6100000,0.6100000,0.6100000,-0.1397368,0.0018080,-0.5818559,-0.1397368,-0.1089263,-0.3233008
0.6125000,0.6125000,0.6125000,-0.1362818,0.0017842,-0.5745804,-0.1362818,-0.1061723,-0.3156240
0.6150000,0.6150000,0.6150000,-0.1329234,0.0017609,-0.5674253,-0.1329234,-0.1034971,-0.3081449
0.6175000,0.6175000,0.6175000,-0.1296586,0.0017380,-0.5603881,-0.1296586,-0.1008981,-0.3008587
0.6200000,0.6200000,0.6200000,-0.1264845,0.0017155,-0.5534665,-0.1264845,-0.0983731,-0.2937607
0.6225000,0.6225000,0.6225000,-0.1233986,0.0016934,-0.5466580,-0.1233986,-0.0959196,-0.2868461
0.6250000,0.6250000,0.6250000,-0.1203981,0.0016718,-0.5399605,-0.1203981,-0.0935355,-0.2801103
0.6275000,0.6275000,0.6275000,-0.1174805,0.0016505,-0.5333718,-0.1174805,-0.0912186,-0.2735486
0.6300000,0.6300000,0.6300000,-0.1146433,0.0016296,-0.5268895,-0.1146433,-0.0889668,-0.2671566
0.6325000,0.6325000,0.6325000,-0.1118841,0.0016091,-0.5205117,-0.1118841,-0.0867782,-0.2609300
0.6350000,0.6350000,0.6350000,-0.1092006,0.0015890,-0.5142363,-0.1092006,-0.0846508,-0.2548643
0.6375000,0.6375000,0.6375000,-0.1065904,0.0015692,-0.5080611,-0.1065904,-0.0825827,-0.2489553
0.6400000,0.6400000,0.6400000,-0.1040515,0.0015497,-0.5019844,-0.1040515,-0.0805720,-0.2431989
0.6425000,0.6425000,0.6425000,-0.1015816,0.0015306,-0.4960040,-0.1015816,-0.0786171,-0.2375910
0.6450000,0.6450000,0.6450000,-0.0991788,0.0015119,-0.4901182,-0.0991788,-0.0767161,-0.2321278
0.6475000,0.6475000,0.6475000,-0.0968409,0.0014934,-0.4843251,-0.0968409,-0.0748675,-0.2268052
0.6500000,0.6500000,0.6500000,-0.0945662,0.0014753,-0.4786229,-0.0945662,-0.0730697,-0.2216195
0.6525000,0.6525000,0.6525000,-0.0923526,0.0014575,-0.4730098,-0.0923526,-0.0713210,-0.2165670
0.6550000,0.6550000,0.6550000,-0.0901984,0.0014400,-0.4674842,-0.0901984,-0.0696201,-0.2116442
0.6575000,0.6575000,0.6575000,-0.0881019,0.0014227,-0.4620442,-0.0881019,-0.0679654,-0.2068475
0.6600000,0.6600000,0.6600000,-0.0860612,0.0014058,-0.4566884,-0.0860612,-0.0663556,-0.2021735
0.6625000,0.6625000,0.6625000,-0.0840749,0.0013891,-0.4514150,-0.0840749,-0.0647893,-0.1976188
0.6650000,0.6650000,0.6650000,-0.0821412,0.0013728,-0.4462225,-0.0821412,-0.0632652,-0.1931802
0.6675000,0.6675000,0.6675000,-0.0802586,0.0013567,-0.4411094,-0.0802586,-0.0617821,-0.1888546
0.6700000,0.6700000,0.6700000,-0.0784256,0.0013408,-0.4360741,-0.0784256,-0.0603386,-0.1846389
0.6725000,0.6725000,0.6725000,-0.0766408,0.0013252,-0.4311153,-0.0766408,-0.0589337,-0.1805300
0.6750000,0.6750000,0.6750000,-0.0749028,0.0013099,-0.4262314,-0.0749028,-0.0575662,-0.1765250
0.6775000,0.6775000,0.6775000,-0.0732101,0.0012948,-0.4214210,-0.0732101,-0.0562349,-0.1726211
0.6800000,0.6800000,0.6800000,-0.0715615,0.0012800,-0.4166829,-0.0715615,-0.0549388,-0.1688156
0.6825000,0.6825000,0.6825000,-0.0699557,0.0012653,-0.4120156,-0.0699557,-0.0536768,-0.1651057
0.6850000,0.6850000,0.6850000,-0.0683915,0.0012510,-0.4074178,-0.0683915,-0.0524480,-0.1614889
0.6875000,0.6875000,0.6875000,-0.0668676,0.0012368,-0.4028883,-0.0668676,-0.0512514,-0.1579625
0.6900000,0.6900000,0.6900000,-0.0653828,0.0012229,-0.3984257,-0.0653828,-0.0500860,-0.1545242
0.6925000,0.6925000,0.6925000,-0.0639361,0.0012092,-0.3940289,-0.0639361,-0.0489508,-0.1511715
0.6950000,0.6950000,0.6950000,-0.0625264,0.0011956,-0.3896967,-0.0625264,-0.0478451,-0.1479021
0.6975000,0.6975000,0.6975000,-0.0611526,0.0011823,-0.3854278,-0.0611526,-0.0467680,-0.1447137
0.7000000,0.7000000,0.7000000,-0.0598136,0.0011693,-0.3812212,-0.0598136,-0.0457186,-0.1416042
0.7025000,0.7025000,0.7025000,-0.0585085,0.0011564,-0.3770756,-0.0585085,-0.0446962,-0.1385713
0.7050000,0.7050000,0.7050000,-0.0572364,0.0011437,-0.3729901,-0.0572364,-0.0436999,-0.1356130
0.7075000,0.7075000,0.7075000,-0.0559962,0.0011312,-0.3689635,-0.0559962,-0.0427291,-0.1327272
0.7100000,0.7100000,0.7100000,-0.0547871,0.0011188,-0.3649947,-0.0547871,-0.0417829,-0.1299121
0.7125000,0.7125000,0.7125000,-0.0536083,0.0011067,-0.3610828,-0.0536083,-0.0408607,-0.1271657
0.7150000,0.7150000,0.7150000,-0.0524587,0.0010948,-0.3572267,-0.0524587,-0.0399618,-0.1244861
0.7175000,0.7175000,0.7175000,-0.0513377,0.0010830,-0.3534254,-0.0513377,-0.0390855,-0.1218715
0.7200000,0.7200000,0.7200000,-0.0502445,0.0010714,-0.3496779,-0.0502445,-0.0382312,-0.1193202
0.7225000,0.7225000,0.7225000,-0.0491782,0.0010599,-0.3459834,-0.0491782,-0.0373983,-0.1168305
0.7250000,0.7250000,0.7250000,-0.0481381,0.0010487,-0.3423409,-0.0481381,-0.0365861,-0.1144008
0.7275000,0.7275000,0.7275000,-0.0471235,0.0010376,-0.3387494,-0.0471235,-0.0357941,-0.1120294
0.7300000,0.7300000,0.7300000,-0.0461337,0.0010266,-0.3352081,-0.0461337,-0.0350218,-0.1097147
0.7325000,0.7325000,0.7325000,-0.0451680,0.0010158,-0.3317161,-0.0451680,-0.0342685,-0.1074553
0.7350000,0.7350000,0.7350000,-0.0442257,0.0010052,-0.3282726,-0.0442257,-0.0335338,-0.1052497
0.7375000,0.7375000,0.7375000,-0.0433062,0.0009947,-0.3248767,-0.0433062,-0.0328171,-0.1030964
0.7400000,0.7400000,0.7400000,-0.0424089,0.0009844,-0.3215275,-0.0424089,-0.0321179,-0.1009941
0.7425000,0.7425000,0.7425000,-0.0415332,0.0009742,-0.3182244,-0.0415332,-0.0314357,-0.0989414
0.7450000,0.7450000,0.7450000,-0.0406784,0.0009642,-0.3149664,-0.0406784,-0.0307702,-0.0969370
0.7475000,0.7475000,0.7475000,-0.0398441,0.0009543,-0.3117529,-0.0398441,-0.0301208,-0.0949797
0.7500000,0.7500000,0.7500000,-0.0390296,0.0009445,-0.3085831,-0.0390296,-0.0294870,-0.0930681
0.7525000,0.7525000,0.7525000,-0.0382344,0.0009349,-0.3054563,-0.0382344,-0.0288685,-0.0912012
0.7550000,0.7550000,0.7550000,-0.0374580,0.0009254,-0.3023716,-0.0374580,-0.0282648,-0.0893777
0.7575000,0.7575000,0.7575000,-0.0367000,0.0009160,-0.2993284,-0.0367000,-0.0276756,-0.0875965
0.7600000,0.7600000,0.7600000,-0.0359597,0.0009068,-0.2963261,-0.0359597,-0.0271005,-0.0858564
0.7625000,0.7625000,0.7625000,-0.0352368,0.0008977,-0.2933639,-0.0352368,-0.0265390,-0.0841565
0.7650000,0.7650000,0.7650000,-0.0345308,0.0008887,-0.2904411,-0.0345308,-0.0259908,-0.0824957
0.7675000,0.7675000,0.7675000,-0.0338412,0.0008799,-0.2875572,-0.0338412,-0.0254555,-0.0808730
0.7700000,0.7700000,0.7700000,-0.0331676,0.0008711,-0.2847114,-0.0331676,-0.0249329,-0.0792873
0.7725000,0.7725000,0.7725000,-0.0325096,0.0008625,-0.2819031,-0.0325096,-0.0244225,-0.0777378
0.7750000,0.7750000,0.7750000,-0.0318667,0.0008540,-0.2791318,-0.0318667,-0.0239241,-0.0762235
0.7775000,0.7775000,0.7775000,-0.0312387,0.0008456,-0.2763967,-0.0312387,-0.0234373,-0.0747435
0.7800000,0.7800000,0.7800000,-0.0306250,0.0008373,-0.2736974,-0.0306250,-0.0229618,-0.0732969
0.7825000,0.7825000,0.7825000,-0.0300253,0.0008292,-0.2710332,-0.0300253,-0.0224973,-0.0718829
0.7850000,0.7850000,0.7850000,-0.0294393,0.0008211,-0.2684036,-0.0294393,-0.0220436,-0.0705007
0.7875000,0.7875000,0.7875000,-0.0288666,0.0008131,-0.2658080,-0.0288666,-0.0216003,-0.0691494
0.7900000,0.7900000,0.7900000,-0.0283068,0.0008053,-0.2632459,-0.0283068,-0.0211672,-0.0678283
0.7925000,0.7925000,0.7925000,-0.0277597,0.0007975,-0.2607166,-0.0277597,-0.0207441,-0.0665365
0.7950000,0.7950000,0.7950000,-0.0272248,0.0007899,-0.2582198,-0.0272248,-0.0203305,-0.0652735
0.7975000,0.7975000,0.7975000,-0.0267020,0.0007823,-0.2557548,-0.0267020,-0.0199265,-0.0640383
0.8000000,0.8000000,0.8000000,-0.0261908,0.0007749,-0.2533212,-0.0261908,-0.0195315,-0.0628305
0.8025000,0.8025000,0.8025000,-0.0256910,0.0007675,-0.2509185,-0.0256910,-0.0191455,-0.0616492
0.8050000,0.8050000,0.8050000,-0.0252023,0.0007602,-0.2485461,-0.0252023,-0.0187682,-0.0604937
0.8075000,0.8075000,0.8075000,-0.0247244,0.0007531,-0.2462037,-0.0247244,-0.0183994,-0.0593636
0.8100000,0.8100000,0.8100000,-0.0242571,0.0007460,-0.2438907,-0.0242571,-0.0180389,-0.0582581
0.8125000,0.8125000,0.8125000,-0.0238000,0.0007390,-0.2416066,-0.0238000,-0.0176864,-0.0571766
0.8150000,0.8150000,0.8150000,-0.0233530,0.0007321,-0.2393511,-0.0233530,-0.0173418,-0.0561185
0.8175000,0.8175000,0.8175000,-0.0229157,0.0007253,-0.2371236,-0.0229157,-0.0170049,-0.0550833
0.8200000,0.8200000,0.8200000,-0.0224880,0.0007186,-0.2349238,-0.0224880,-0.0166754,-0.0540704
0.8225000,0.8225000,0.8225000,-0.0220695,0.0007119,-0.2327512,-0.0220695,-0.0163531,-0.0530793
0.8250000,0.8250000,0.8250000,-0.0216602,0.0007053,-0.2306054,-0.0216602,-0.0160380,-0.0521094
0.8275000,0.8275000,0.8275000,-0.0212596,0.0006989,-0.2284859,-0.0212596,-0.0157298,-0.0511602
0.8300000,0.8300000,0.8300000,-0.0208677,0.0006925,-0.2263925,-0.0208677,-0.0154284,-0.0502312
0.8325000,0.8325000,0.8325000,-0.0204842,0.0006861,-0.2243246,-0.0204842,-0.0151335,-0.0493219
0.8350000,0.8350000,0.8350000,-0.0201089,0.0006799,-0.2222818,-0.0201089,-0.0148451,-0.0484318
0.8375000,0.8375000,0.8375000,-0.0197416,0.0006737,-0.2202639,-0.0197416,-0.0145629,-0.0475606
0.8400000,0.8400000,0.8400000,-0.0193821,0.0006676,-0.2182704,-0.0193821,-0.0142868,-0.0467077
0.8425000,0.8425000,0.8425000,-0.0190303,0.0006616,-0.2163010,-0.0190303,-0.0140167,-0.0458726
0.8450000,0.8450000,0.8450000,-0.0186858,0.0006557,-0.2143552,-0.0186858,-0.0137524,-0.0450550
0.8475000,0.8475000,0.8475000,-0.0183487,0.0006498,-0.2124328,-0.0183487,-0.0134937,-0.0442545
0.8500000,0.8500000,0.8500000,-0.0180186,0.0006440,-0.2105334,-0.0180186,-0.0132406,-0.0434706
0.8525000,0.8525000,0.8525000,-0.0176955,0.0006382,-0.2086567,-0.0176955,-0.0129929,-0.0427030
0.8550000,0.8550000,0.8550000,-0.0173790,0.0006326,-0.2068022,-0.0173790,-0.0127505,-0.0419512
0.8575000,0.8575000,0.8575000,-0.0170692,0.0006270,-0.2049697,-0.0170692,-0.0125132,-0.0412150
0.8600000,0.8600000,0.8600000,-0.0167658,0.0006215,-0.2031589,-0.0167658,-0.0122809,-0.0404938
0.8625000,0.8625000,0.8625000,-0.0164687,0.0006160,-0.2013694,-0.0164687,-0.0120535,-0.0397875
0.8650000,0.8650000,0.8650000,-0.0161778,0.0006106,-0.1996009,-0.0161778,-0.0118310,-0.0390956
0.8675000,0.8675000,0.8675000,-0.0158928,0.0006052,-0.1978531,-0.0158928,-0.0116130,-0.0384177
0.8700000,0.8700000,0.8700000,-0.0156136,0.0006000,-0.1961258,-0.0156136,-0.0113997,-0.0377537
0.8725000,0.8725000,0.8725000,-0.0153402,0.0005948,-0.1944185,-0.0153402,-0.0111908,-0.0371031
0.8750000,0.8750000,0.8750000,-0.0150724,0.0005896,-0.1927311,-0.0150724,-0.0109862,-0.0364656
0.8775000,0.8775000,0.8775000,-0.0148100,0.0005845,-0.1910632,-0.0148100,-0.0107859,-0.0358410
0.8800000,0.8800000,0.8800000,-0.0145529,0.0005795,-0.1894145,-0.0145529,-0.0105897,-0.0352289
0.8825000,0.8825000,0.8825000,-0.0143010,0.0005745,-0.1877848,-0.0143010,-0.0103976,-0.0346291
0.8850000,0.8850000,0.8850000,-0.0140542,0.0005696,-0.1861738,-0.0140542,-0.0102094,-0.0340413
0.8875000,0.8875000,0.8875000,-0.0138124,0.0005647,-0.1845813,-0.0138124,-0.0100251,-0.0334651
0.8900000,0.8900000,0.8900000,-0.0135754,0.0005599,-0.1830069,-0.0135754,-0.0098445,-0.0329004
0.8925000,0.8925000,0.8925000,-0.0133432,0.0005552,-0.1814504,-0.0133432,-0.0096677,-0.0323469
0.8950000,0.8950000,0.8950000,-0.0131156,0.0005505,-0.1799115,-0.0131156,-0.0094944,-0.0318043
0.8975000,0.8975000,0.8975000,-0.0128925,0.0005458,-0.1783901,-0.0128925,-0.0093247,-0.0312724
0.9000000,0.9000000,0.9000000,-0.0126738,0.0005412,-0.1768858,-0.0126738,-0.0091584,-0.0307509
0.9025000,0.9025000,0.9025000,-0.0124595,0.0005367,-0.1753985,-0.0124595,-0.0089954,-0.0302397
0.9050000,0.9050000,0.9050000,-0.0122494,0.0005322,-0.1739278,-0.0122494,-0.0088358,-0.0297384
0.9075000,0.9075000,0.9075000,-0.0120434,0.0005278,-0.1724735,-0.0120434,-0.0086793,-0.0292468
0.9100000,0.9100000,0.9100000,-0.0118414,0.0005234,-0.1710355,-0.0118414,-0.0085260,-0.0287649
0.9125000,0.9125000,0.9125000,-0.0116434,0.0005190,-0.1696135,-0.0116434,-0.0083757,-0.0282922
0.9150000,0.9150000,0.9150000,-0.0114493,0.0005147,-0.1682072,-0.0114493,-0.0082285,-0.0278287
0.9175000,0.9175000,0.9175000,-0.0112589,0.0005105,-0.1668165,-0.0112589,-0.0080841,-0.0273740
0.9200000,0.9200000,0.9200000,-0.0110722,0.0005063,-0.1654411,-0.0110722,-0.0079426,-0.0269282
0.9225000,0.9225000,0.9225000,-0.0108892,0.0005021,-0.1640808,-0.0108892,-0.0078039,-0.0264908
0.9250000,0.9250000,0.9250000,-0.0107096,0.0004980,-0.1627355,-0.0107096,-0.0076680,-0.0260618
0.9275000,0.9275000,0.9275000,-0.0105335,0.0004940,-0.1614049,-0.0105335,-0.0075347,-0.0256410
0.9300000,0.9300000,0.9300000,-0.0103608,0.0004899,-0.1600887,-0.0103608,-0.0074041,-0.0252281
0.9325000,0.9325000,0.9325000,-0.0101914,0.0004860,-0.1587869,-0.0101914,-0.0072760,-0.0248231
0.9350000,0.9350000,0.9350000,-0.0100252,0.0004820,-0.1574992,-0.0100252,-0.0071504,-0.0244257
0.9375000,0.9375000,0.9375000,-0.0098622,0.0004782,-0.1562254,-0.0098622,-0.0070272,-0.0240358
0.9400000,0.9400000,0.9400000,-0.0097022,0.0004743,-0.1549654,-0.0097022,-0.0069064,-0.0236532
0.9425000,0.9425000,0.9425000,-0.0095453,0.0004705,-0.1537189,-0.0095453,-0.0067880,-0.0232777
0.9450000,0.9450000,0.9450000,-0.0093914,0.0004667,-0.1524858,-0.0093914,-0.0066719,-0.0229093
0.9475000,0.9475000,0.9475000,-0.0092403,0.0004630,-0.1512659,-0.0092403,-0.0065580,-0.0225478
0.9500000,0.9500000,0.9500000,-0.0090921,0.0004593,-0.1500589,-0.0090921,-0.0064462,-0.0221929
0.9525000,0.9525000,0.9525000,-0.0089466,0.0004557,-0.1488649,-0.0089466,-0.0063367,-0.0218446
0.9550000,0.9550000,0.9550000,-0.0088039,0.0004521,-0.1476835,-0.0088039,-0.0062292,-0.0215028
0.9575000,0.9575000,0.9575000,-0.0086638,0.0004485,-0.1465146,-0.0086638,-0.0061238,-0.0211672
0.9600000,0.9600000,0.9600000,-0.0085263,0.0004450,-0.1453580,-0.0085263,-0.0060204,-0.0208379
0.9625000,0.9625000,0.9625000,-0.0083914,0.0004415,-0.1442136,-0.0083914,-0.0059189,-0.0205145
0.9650000,0.9650000,0.9650000,-0.0082589,0.0004380,-0.1430813,-0.0082589,-0.0058194,-0.0201971
0.9675000,0.9675000,0.9675000,-0.0081289,0.0004346,-0.1419608,-0.0081289,-0.0057217,-0.0198854
0.9700000,0.9700000,0.9700000,-0.0080013,0.0004312,-0.1408520,-0.0080013,-0.0056259,-0.0195794
0.9725000,0.9725000,0.9725000,-0.0078760,0.0004279,-0.1397547,-0.0078760,-0.0055319,-0.0192790
0.9750000,0.9750000,0.9750000,-0.0077530,0.0004246,-0.1386688,-0.0077530,-0.0054396,-0.0189839
0.9775000,0.9775000,0.9775000,-0.0076322,0.0004213,-0.1375942,-0.0076322,-0.0053491,-0.0186942
0.9800000,0.9800000,0.9800000,-0.0075136,0.0004180,-0.1365307,-0.0075136,-0.0052603,-0.0184098
0.9825000,0.9825000,0.9825000,-0.0073972,0.0004148,-0.1354782,-0.0073972,-0.0051731,-0.0181304
0.9850000,0.9850000,0.9850000,-0.0072829,0.0004116,-0.1344364,-0.0072829,-0.0050875,-0.0178560
0.9875000,0.9875000,0.9875000,-0.0071706,0.0004085,-0.1334054,-0.0071706,-0.0050036,-0.0175865
0.9900000,0.9900000,0.9900000,-0.0070604,0.0004054,-0.1323849,-0.0070604,-0.0049211,-0.0173218
0.9925000,0.9925000,0.9925000,-0.0069521,0.0004023,-0.1313748,-0.0069521,-0.0048402,-0.0170618
0.9950000,0.9950000,0.9950000,-0.0068458,0.0003992,-0.1303750,-0.0068458,-0.0047608,-0.0168064
0.9975000,0.9975000,0.9975000,-0.0067414,0.0003962,-0.1293853,-0.0067414,-0.0046829,-0.0165555
1.0000000,1.0000000,1.0000000,-0.0066388,0.0003932,-0.1284057,-0.0066388,-0.0046063,-0.0163090
1.0025000,1.0025000,1.0025000,-0.0065380,0.0003903,-0.1274359,-0.0065380,-0.0045312,-0.0160668
1.0050000,1.0050000,1.0050000,-0.0064391,0.0003873,-0.1264759,-0.0064391,-0.0044574,-0.0158289
1.0075000,1.0075000,1.0075000,-0.0063418,0.0003844,-0.1255256,-0.0063418,-0.0043850,-0.0155951
1.0100000,1.0100000,1.0100000,-0.0062463,0.0003816,-0.1245848,-0.0062463,-0.0043139,-0.0153655
1.0125000,1.0125000,1.0125000,-0.0061525,0.0003787,-0.1236534,-0.0061525,-0.0042441,-0.0151398
1.0150000,1.0150000,1.0150000,-0.0060603,0.0003759,-0.1227312,-0.0060603,-0.0041755,-0.0149180
1.0175000,1.0175000,1.0175000,-0.0059697,0.0003731,-0.1218183,-0.0059697,-0.0041082,-0.0147000
1.0200000,1.0200000,1.0200000,-0.0058807,0.0003704,-0.1209143,-0.0058807,-0.0040421,-0.0144858
1.0225000,1.0225000,1.0225000,-0.0057933,0.0003676,-0.1200194,-0.0057933,-0.0039772,-0.0142753
1.0250000,1.0250000,1.0250000,-0.0057073,0.0003649,-0.1191333,-0.0057073,-0.0039134,-0.0140684
1.0275000,1.0275000,1.0275000,-0.0056229,0.0003622,-0.1182558,-0.0056229,-0.0038508,-0.0138651
1.0300000,1.0300000,1.0300000,-0.0055399,0.0003596,-0.1173871,-0.0055399,-0.0037893,-0.0136652
1.0325000,1.0325000,1.0325000,-0.0054583,0.0003570,-0.1165268,-0.0054583,-0.0037289,-0.0134687
1.0350000,1.0350000,1.0350000,-0.0053782,0.0003543,-0.1156749,-0.0053782,-0.0036695,-0.0132756
1.0375000,1.0375000,1.0375000,-0.0052994,0.0003518,-0.1148313,-0.0052994,-0.0036112,-0.0130857
1.0400000,1.0400000,1.0400000,-0.0052219,0.0003492,-0.1139960,-0.0052219,-0.0035539,-0.0128990
1.0425000,1.0425000,1.0425000,-0.0051458,0.0003467,-0.1131687,-0.0051458,-0.0034977,-0.0127155
1.0450000,1.0450000,1.0450000,-0.0050710,0.0003442,-0.1123494,-0.0050710,-0.0034424,-0.0125351
1.0475000,1.0475000,1.0475000,-0.0049974,0.0003417,-0.1115381,-0.0049974,-0.0033881,-0.0123577
1.0500000,1.0500000,1.0500000,-0.0049251,0.0003393,-0.1107346,-0.0049251,-0.0033348,-0.0121832
1.0525000,1.0525000,1.0525000,-0.0048540,0.0003368,-0.1099387,-0.0048540,-0.0032823,-0.0120117
1.0550000,1.0550000,1.0550000,-0.0047841,0.0003344,-0.1091506,-0.0047841,-0.0032308,-0.0118430
1.0575000,1.0575000,1.0575000,-0.0047154,0.0003320,-0.1083699,-0.0047154,-0.0031802,-0.0116771
1.0600000,1.0600000,1.0600000,-0.0046478,0.0003297,-0.1075967,-0.0046478,-0.0031305,-0.0115140
1.0625000,1.0625000,1.0625000,-0.0045814,0.0003273,-0.1068308,-0.0045814,-0.0030816,-0.0113536
1.0650000,1.0650000,1.0650000,-0.0045160,0.0003250,-0.1060723,-0.0045160,-0.0030336,-0.0111958
1.0675000,1.0675000,1.0675000,-0.0044518,0.0003227,-0.1053208,-0.0044518,-0.0029864,-0.0110406
1.0700000,1.0700000,1.0700000,-0.0043886,0.0003204,-0.1045765,-0.0043886,-0.0029400,-0.0108879
1.0725000,1.0725000,1.0725000,-0.0043264,0.0003182,-0.1038392,-0.0043264,-0.0028944,-0.0107378
1.0750000,1.0750000,1.0750000,-0.0042653,0.0003160,-0.1031089,-0.0042653,-0.0028496,-0.0105901
1.0775000,1.0775000,1.0775000,-0.0042052,0.0003138,-0.1023854,-0.0042052,-0.0028056,-0.0104448
1.0800000,1.0800000,1.0800000,-0.0041461,0.0003116,-0.1016686,-0.0041461,-0.0027623,-0.0103018
1.0825000,1.0825000,1.0825000,-0.0040880,0.0003094,-0.1009586,-0.0040880,-0.0027197,-0.0101612
1.0850000,1.0850000,1.0850000,-0.0040308,0.0003072,-0.1002551,-0.0040308,-0.0026779,-0.0100228
1.0875000,1.0875000,1.0875000,-0.0039745,0.0003051,-0.0995582,-0.0039745,-0.0026368,-0.0098867
1.0900000,1.0900000,1.0900000,-0.0039192,0.0003030,-0.0988678,-0.0039192,-0.0025963,-0.0097528
1.0925000,1.0925000,1.0925000,-0.0038647,0.0003009,-0.0981837,-0.0038647,-0.0025566,-0.0096210
1.0950000,1.0950000,1.0950000,-0.0038111,0.0002988,-0.0975060,-0.0038111,-0.0025175,-0.0094913
1.0975000,1.0975000,1.0975000,-0.0037584,0.0002968,-0.0968345,-0.0037584,-0.0024791,-0.0093637
1.1000000,1.1000000,1.1000000,-0.0037066,0.0002948,-0.0961691,-0.0037066,-0.0024413,-0.0092381
1.1025000,1.1025000,1.1025000,-0.0036556,0.0002927,-0.0955099,-0.0036556,-0.0024042,-0.0091145
1.1050000,1.1050000,1.1050000,-0.0036054,0.0002907,-0.0948567,-0.0036054,-0.0023677,-0.0089929
1.1075000,1.1075000,1.1075000,-0.0035560,0.0002888,-0.0942094,-0.0035560,-0.0023317,-0.0088732
1.1100000,1.1100000,1.1100000,-0.0035074,0.0002868,-0.0935680,-0.0035074,-0.0022964,-0.0087554
1.1125000,1.1125000,1.1125000,-0.0034596,0.0002849,-0.0929325,-0.0034596,-0.0022617,-0.0086394
1.1150000,1.1150000,1.1150000,-0.0034125,0.0002829,-0.0923027,-0.0034125,-0.0022275,-0.0085253
1.1175000,1.1175000,1.1175000,-0.0033662,0.0002810,-0.0916785,-0.0033662,-0.0021940,-0.0084129
1.1200000,1.1200000,1.1200000,-0.0033206,0.0002791,-0.0910601,-0.0033206,-0.0021609,-0.0083023
1.1225000,1.1225000,1.1225000,-0.0032757,0.0002773,-0.0904471,-0.0032757,-0.0021284,-0.0081935
1.1250000,1.1250000,1.1250000,-0.0032316,0.0002754,-0.0898397,-0.0032316,-0.0020965,-0.0080863
1.1275000,1.1275000,1.1275000,-0.0031881,0.0002736,-0.0892377,-0.0031881,-0.0020650,-0.0079808
1.1300000,1.1300000,1.1300000,-0.0031453,0.0002717,-0.0886411,-0.0031453,-0.0020341,-0.0078769
1.1325000,1.1325000,1.1325000,-0.0031032,0.0002699,-0.0880499,-0.0031032,-0.0020037,-0.0077746
1.1350000,1.1350000,1.1350000,-0.0030617,0.0002682,-0.0874638,-0.0030617,-0.0019738,-0.0076739
1.1375000,1.1375000,1.1375000,-0.0030209,0.0002664,-0.0868830,-0.0030209,-0.0019444,-0.0075747
1.1400000,1.1400000,1.1400000,-0.0029807,0.0002646,-0.0863073,-0.0029807,-0.0019154,-0.0074771
1.1425000,1.1425000,1.1425000,-0.0029412,0.0002629,-0.0857367,-0.0029412,-0.0018869,-0.0073810
1.1450000,1.1450000,1.1450000,-0.0029022,0.0002611,-0.0851712,-0.0029022,-0.0018589,-0.0072863
1.1475000,1.1475000,1.1475000,-0.0028639,0.0002594,-0.0846106,-0.0028639,-0.0018314,-0.0071930
1.1500000,1.1500000,1.1500000,-0.0028262,0.0002577,-0.0840549,-0.0028262,-0.0018042,-0.0071012
1.1525000,1.1525000,1.1525000,-0.0027890,0.0002560,-0.0835041,-0.0027890,-0.0017776,-0.0070108
1.1550000,1.1550000,1.1550000,-0.0027524,0.0002544,-0.0829581,-0.0027524,-0.0017513,-0.0069217
1.1575000,1.1575000,1.1575000,-0.0027164,0.0002527,-0.0824169,-0.0027164,-0.0017255,-0.0068340
1.1600000,1.1600000,1.1600000,-0.0026809,0.0002511,-0.0818803,-0.0026809,-0.0017000,-0.0067476
1.1625000,1.1625000,1.1625000,-0.0026459,0.0002495,-0.0813485,-0.0026459,-0.0016750,-0.0066625
1.1650000,1.1650000,1.1650000,-0.0026115,0.0002478,-0.0808212,-0.0026115,-0.0016504,-0.0065787
1.1675000,1.1675000,1.1675000,-0.0025776,0.0002462,-0.0802985,-0.0025776,-0.0016262,-0.0064961
1.1700000,1.1700000,1.1700000,-0.0025442,0.0002447,-0.0797803,-0.0025442,-0.0016023,-0.0064148
1.1725000,1.1725000,1.1725000,-0.0025113,0.0002431,-0.0792665,-0.0025113,-0.0015789,-0.0063347
1.1750000,1.1750000,1.1750000,-0.0024790,0.0002415,-0.0787572,-0.0024790,-0.0015558,-0.0062557
1.1775000,1.1775000,1.1775000,-0.0024471,0.0002400,-0.0782522,-0.0024471,-0.0015331,-0.0061779
1.1800000,1.1800000,1.1800000,-0.0024157,0.0002385,-0.0777516,-0.0024157,-0.0015107,-0.0061013
1.1825000,1.1825000,1.1825000,-0.0023847,0.0002369,-0.0772552,-0.0023847,-0.0014887,-0.0060258
1.1850000,1.1850000,1.1850000,-0.0023542,0.0002354,-0.0767631,-0.0023542,-0.0014670,-0.0059514
1.1875000,1.1875000,1.1875000,-0.0023242,0.0002339,-0.0762751,-0.0023242,-0.0014457,-0.0058782
1.1900000,1.1900000,1.1900000,-0.0022946,0.0002325,-0.0757912,-0.0022946,-0.0014247,-0.0058059
1.1925000,1.1925000,1.1925000,-0.0022655,0.0002310,-0.0753115,-0.0022655,-0.0014040,-0.0057348
1.1950000,1.1950000,1.1950000,-0.0022368,0.0002295,-0.0748358,-0.0022368,-0.0013837,-0.0056647
1.1975000,1.1975000,1.1975000,-0.0022085,0.0002281,-0.0743641,-0.0022085,-0.0013636,-0.0055956
1.2000000,1.2000000,1.2000000,-0.0021806,0.0002267,-0.0738964,-0.0021806,-0.0013439,-0.0055275
1.2025000,1.2025000,1.2025000,-0.0021532,0.0002252,-0.0734326,-0.0021532,-0.0013245,-0.0054603
1.2050000,1.2050000,1.2050000,-0.0021261,0.0002238,-0.0729726,-0.0021261,-0.0013054,-0.0053942
1.2075000,1.2075000,1.2075000,-0.0020994,0.0002224,-0.0725165,-0.0020994,-0.0012866,-0.0053290
1.2100000,1.2100000,1.2100000,-0.0020732,0.0002211,-0.0720643,-0.0020732,-0.0012681,-0.0052648
1.2125000,1.2125000,1.2125000,-0.0020473,0.0002197,-0.0716157,-0.0020473,-0.0012498,-0.0052014
1.2150000,1.2150000,1.2150000,-0.0020218,0.0002183,-0.0711709,-0.0020218,-0.0012319,-0.0051390
1.2175000,1.2175000,1.2175000,-0.0019966,0.0002170,-0.0707298,-0.0019966,-0.0012142,-0.0050775
1.2200000,1.2200000,1.2200000,-0.0019719,0.0002156,-0.0702923,-0.0019719,-0.0011968,-0.0050168
1.2225000,1.2225000,1.2225000,-0.0019474,0.0002143,-0.0698585,-0.0019474,-0.0011796,-0.0049570
1.2250000,1.2250000,1.2250000,-0.0019234,0.0002130,-0.0694282,-0.0019234,-0.0011627,-0.0048981
1.2275000,1.2275000,1.2275000,-0.0018997,0.0002117,-0.0690014,-0.0018997,-0.0011461,-0.0048400
1.2300000,1.2300000,1.2300000,-0.0018763,0.0002104,-0.0685781,-0.0018763,-0.0011297,-0.0047827
1.2325000,1.2325000,1.2325000,-0.0018533,0.0002091,-0.0681583,-0.0018533,-0.0011136,-0.0047262
1.2350000,1.2350000,1.2350000,-0.0018305,0.0002078,-0.0677419,-0.0018305,-0.0010977,-0.0046705
1.2375000,1.2375000,1.2375000,-0.0018082,0.0002066,-0.0673290,-0.0018082,-0.0010821,-0.0046157
1.2400000,1.2400000,1.2400000,-0.0017861,0.0002053,-0.0669193,-0.0017861,-0.0010667,-0.0045615
1.2425000,1.2425000,1.2425000,-0.0017643,0.0002041,-0.0665130,-0.0017643,-0.0010515,-0.0045081
1.2450000,1.2450000,1.2450000,-0.0017429,0.0002028,-0.0661100,-0.0017429,-0.0010366,-0.0044555
1.2475000,1.2475000,1.2475000,-0.0017218,0.0002016,-0.0657102,-0.0017218,-0.0010219,-0.0044036
1.2500000,1.2500000,1.2500000,-0.0017009,0.0002004,-0.0653137,-0.0017009,-0.0010074,-0.0043525
1.2525000,1.2525000,1.2525000,-0.0016804,0.0001992,-0.0649203,-0.0016804,-0.0009931,-0.0043020
1.2550000,1.2550000,1.2550000,-0.0016601,0.0001980,-0.0645301,-0.0016601,-0.0009790,-0.0042522
1.2575000,1.2575000,1.2575000,-0.0016402,0.0001968,-0.0641431,-0.0016402,-0.0009652,-0.0042031
1.2600000,1.2600000,1.2600000,-0.0016205,0.0001956,-0.0637591,-0.0016205,-0.0009515,-0.0041547
1.2625000,1.2625000,1.2625000,-0.0016011,0.0001945,-0.0633782,-0.0016011,-0.0009381,-0.0041070
1.2650000,1.2650000,1.2650000,-0.0015819,0.0001933,-0.0630003,-0.0015819,-0.0009249,-0.0040599
1.2675000,1.2675000,1.2675000,-0.0015630,0.0001922,-0.0626254,-0.0015630,-0.0009118,-0.0040135
1.2700000,1.2700000,1.2700000,-0.0015444,0.0001910,-0.0622535,-0.0015444,-0.0008990,-0.0039677
1.2725000,1.2725000,1.2725000,-0.0015261,0.0001899,-0.0618846,-0.0015261,-0.0008863,-0.0039225
1.2750000,1.2750000,1.2750000,-0.0015080,0.0001888,-0.0615185,-0.0015080,-0.0008738,-0.0038779
1.2775000,1.2775000,1.2775000,-0.0014901,0.0001877,-0.0611554,-0.0014901,-0.0008615,-0.0038340
1.2800000,1.2800000,1.2800000,-0.0014725,0.0001866,-0.0607951,-0.0014725,-0.0008494,-0.0037906
1.2825000,1.2825000,1.2825000,-0.0014551,0.0001855,-0.0604376,-0.0014551,-0.0008375,-0.0037478
1.2850000,1.2850000,1.2850000,-0.0014380,0.0001844,-0.0600830,-0.0014380,-0.0008257,-0.0037056
1.2875000,1.2875000,1.2875000,-0.0014211,0.0001833,-0.0597311,-0.0014211,-0.0008142,-0.0036640
1.2900000,1.2900000,1.2900000,-0.0014045,0.0001822,-0.0593819,-0.0014045,-0.0008027,-0.0036229
1.2925000,1.2925000,1.2925000,-0.0013880,0.0001812,-0.0590355,-0.0013880,-0.0007915,-0.0035824
1.2950000,1.2950000,1.2950000,-0.0013718,0.0001801,-0.0586918,-0.0013718,-0.0007804,-0.0035424
1.2975000,1.2975000,1.2975000,-0.0013559,0.0001791,-0.0583507,-0.0013559,-0.0007695,-0.0035030
1.3000000,1.3000000,1.3000000,-0.0013401,0.0001780,-0.0580123,-0.0013401,-0.0007587,-0.0034640
1.3025000,1.3025000,1.3025000,-0.0013245,0.0001770,-0.0576765,-0.0013245,-0.0007481,-0.0034256
1.3050000,1.3050000,1.3050000,-0.0013092,0.0001760,-0.0573433,-0.0013092,-0.0007377,-0.0033877
1.3075000,1.3075000,1.3075000,-0.0012941,0.0001750,-0.0570127,-0.0012941,-0.0007274,-0.0033503
1.3100000,1.3100000,1.3100000,-0.0012791,0.0001740,-0.0566846,-0.0012791,-0.0007172,-0.0033134
1.3125000,1.3125000,1.3125000,-0.0012644,0.0001730,-0.0563590,-0.0012644,-0.0007072,-0.0032770
1.3150000,1.3150000,1.3150000,-0.0012499,0.0001720,-0.0560359,-0.0012499,-0.0006974,-0.0032411
1.3175000,1.3175000,1.3175000,-0.0012355,0.0001710,-0.0557153,-0.0012355,-0.0006876,-0.0032056
1.3200000,1.3200000,1.3200000,-0.0012214,0.0001700,-0.0553971,-0.0012214,-0.0006781,-0.0031706
1.3225000,1.3225000,1.3225000,-0.0012074,0.0001691,-0.0550813,-0.0012074,-0.0006686,-0.0031361
1.3250000,1.3250000,1.3250000,-0.0011937,0.0001681,-0.0547680,-0.0011937,-0.0006593,-0.0031020
1.3275000,1.3275000,1.3275000,-0.0011801,0.0001672,-0.0544570,-0.0011801,-0.0006501,-0.0030684
1.3300000,1.3300000,1.3300000,-0.0011667,0.0001662,-0.0541484,-0.0011667,-0.0006411,-0.0030351
1.3325000,1.3325000,1.3325000,-0.0011534,0.0001653,-0.0538421,-0.0011534,-0.0006322,-0.0030024
1.3350000,1.3350000,1.3350000,-0.0011404,0.0001643,-0.0535381,-0.0011404,-0.0006234,-0.0029700
1.3375000,1.3375000,1.3375000,-0.0011275,0.0001634,-0.0532364,-0.0011275,-0.0006148,-0.0029381
1.3400000,1.3400000,1.3400000,-0.0011148,0.0001625,-0.0529370,-0.0011148,-0.0006062,-0.0029065
1.3425000,1.3425000,1.3425000,-0.0011022,0.0001616,-0.0526398,-0.0011022,-0.0005978,-0.0028754
1.3450000,1.3450000,1.3450000,-0.0010899,0.0001607,-0.0523448,-0.0010899,-0.0005895,-0.0028447
1.3475000,1.3475000,1.3475000,-0.0010776,0.0001598,-0.0520521,-0.0010776,-0.0005813,-0.0028144
1.3500000,1.3500000,1.3500000,-0.0010656,0.0001589,-0.0517615,-0.0010656,-0.0005733,-0.0027844
1.3525000,1.3525000,1.3525000,-0.0010537,0.0001580,-0.0514731,-0.0010537,-0.0005653,-0.0027549
1.3550000,1.3550000,1.3550000,-0.0010419,0.0001571,-0.0511868,-0.0010419,-0.0005575,-0.0027257
1.3575000,1.3575000,1.3575000,-0.0010303,0.0001563,-0.0509027,-0.0010303,-0.0005498,-0.0026969
1.3600000,1.3600000,1.3600000,-0.0010189,0.0001554,-0.0506206,-0.0010189,-0.0005421,-0.0026685
1.3625000,1.3625000,1.3625000,-0.0010076,0.0001546,-0.0503406,-0.0010076,-0.0005346,-0.0026404
1.3650000,1.3650000,1.3650000,-0.0009965,0.0001537,-0.0500627,-0.0009965,-0.0005272,-0.0026126
1.3675000,1.3675000,1.3675000,-0.0009854,0.0001529,-0.0497869,-0.0009854,-0.0005199,-0.0025853
1.3700000,1.3700000,1.3700000,-0.0009746,0.0001520,-0.0495131,-0.0009746,-0.0005127,-0.0025582
1.3725000,1.3725000,1.3725000,-0.0009639,0.0001512,-0.0492412,-0.0009639,-0.0005056,-0.0025315
1.3750000,1.3750000,1.3750000,-0.0009533,0.0001504,-0.0489714,-0.0009533,-0.0004986,-0.0025052
1.3775000,1.3775000,1.3775000,-0.0009428,0.0001495,-0.0487036,-0.0009428,-0.0004917,-0.0024791
1.3800000,1.3800000,1.3800000,-0.0009325,0.0001487,-0.0484376,-0.0009325,-0.0004849,-0.0024534
1.3825000,1.3825000,1.3825000,-0.0009223,0.0001479,-0.0481737,-0.0009223,-0.0004782,-0.0024281
1.3850000,1.3850000,1.3850000,-0.0009123,0.0001471,-0.0479116,-0.0009123,-0.0004716,-0.0024030
1.3875000,1.3875000,1.3875000,-0.0009023,0.0001463,-0.0476515,-0.0009023,-0.0004651,-0.0023782
1.3900000,1.3900000,1.3900000,-0.0008925,0.0001455,-0.0473932,-0.0008925,-0.0004586,-0.0023538
1.3925000,1.3925000,1.3925000,-0.0008829,0.0001447,-0.0471368,-0.0008829,-0.0004523,-0.0023296
1.3950000,1.3950000,1.3950000,-0.0008733,0.0001440,-0.0468822,-0.0008733,-0.0004460,-0.0023058
1.3975000,1.3975000,1.3975000,-0.0008639,0.0001432,-0.0466295,-0.0008639,-0.0004399,-0.0022822
1.4000000,1.4000000,1.4000000,-0.0008546,0.0001424,-0.0463786,-0.0008546,-0.0004338,-0.0022589
1.4025000,1.4025000,1.4025000,-0.0008454,0.0001416,-0.0461295,-0.0008454,-0.0004278,-0.0022360
1.4050000,1.4050000,1.4050000,-0.0008363,0.0001409,-0.0458822,-0.0008363,-0.0004218,-0.0022133
1.4075000,1.4075000,1.4075000,-0.0008273,0.0001401,-0.0456366,-0.0008273,-0.0004160,-0.0021908
1.4100000,1.4100000,1.4100000,-0.0008184,0.0001394,-0.0453928,-0.0008184,-0.0004103,-0.0021687
1.4125000,1.4125000,1.4125000,-0.0008097,0.0001387,-0.0451507,-0.0008097,-0.0004046,-0.0021468
1.4150000,1.4150000,1.4150000,-0.0008011,0.0001379,-0.0449104,-0.0008011,-0.0003990,-0.0021252
1.4175000,1.4175000,1.4175000,-0.0007925,0.0001372,-0.0446717,-0.0007925,-0.0003934,-0.0021038
1.4200000,1.4200000,1.4200000,-0.0007841,0.0001365,-0.0444348,-0.0007841,-0.0003880,-0.0020827
1.4225000,1.4225000,1.4225000,-0.0007758,0.0001357,-0.0441995,-0.0007758,-0.0003826,-0.0020619
1.4250000,1.4250000,1.4250000,-0.0007676,0.0001350,-0.0439659,-0.0007676,-0.0003773,-0.0020413
1.4275000,1.4275000,1.4275000,-0.0007595,0.0001343,-0.0437339,-0.0007595,-0.0003721,-0.0020210
1.4300000,1.4300000,1.4300000,-0.0007514,0.0001336,-0.0435036,-0.0007514,-0.0003669,-0.0020009
1.4325000,1.4325000,1.4325000,-0.0007435,0.0001329,-0.0432749,-0.0007435,-0.0003618,-0.0019810
1.4350000,1.4350000,1.4350000,-0.0007357,0.0001322,-0.0430477,-0.0007357,-0.0003568,-0.0019614
1.4375000,1.4375000,1.4375000,-0.0007280,0.0001315,-0.0428222,-0.0007280,-0.0003519,-0.0019420
1.4400000,1.4400000,1.4400000,-0.0007204,0.0001308,-0.0425983,-0.0007204,-0.0003470,-0.0019229
1.4425000,1.4425000,1.4425000,-0.0007128,0.0001301,-0.0423759,-0.0007128,-0.0003421,-0.0019039
1.4450000,1.4450000,1.4450000,-0.0007054,0.0001295,-0.0421550,-0.0007054,-0.0003374,-0.0018852
1.4475000,1.4475000,1.4475000,-0.0006980,0.0001288,-0.0419357,-0.0006980,-0.0003327,-0.0018668
1.4500000,1.4500000,1.4500000,-0.0006908,0.0001281,-0.0417179,-0.0006908,-0.0003281,-0.0018485
1.4525000,1.4525000,1.4525000,-0.0006836,0.0001275,-0.0415016,-0.0006836,-0.0003235,-0.0018305
1.4550000,1.4550000,1.4550000,-0.0006765,0.0001268,-0.0412868,-0.0006765,-0.0003190,-0.0018126
1.4575000,1.4575000,1.4575000,-0.0006695,0.0001262,-0.0410735,-0.0006695,-0.0003146,-0.0017950
1.4600000,1.4600000,1.4600000,-0.0006626,0.0001255,-0.0408617,-0.0006626,-0.0003102,-0.0017776
1.4625000,1.4625000,1.4625000,-0.0006557,0.0001249,-0.0406513,-0.0006557,-0.0003058,-0.0017604
1.4650000,1.4650000,1.4650000,-0.0006490,0.0001242,-0.0404424,-0.0006490,-0.0003016,-0.0017434
1.4675000,1.4675000,1.4675000,-0.0006423,0.0001236,-0.0402349,-0.0006423,-0.0002974,-0.0017265
1.4700000,1.4700000,1.4700000,-0.0006357,0.0001230,-0.0400288,-0.0006357,-0.0002932,-0.0017099
1.4725000,1.4725000,1.4725000,-0.0006292,0.0001223,-0.0398241,-0.0006292,-0.0002891,-0.0016935
1.4750000,1.4750000,1.4750000,-0.0006228,0.0001217,-0.0396208,-0.0006228,-0.0002851,-0.0016773
1.4775000,1.4775000,1.4775000,-0.0006164,0.0001211,-0.0394189,-0.0006164,-0.0002811,-0.0016612
1.4800000,1.4800000,1.4800000,-0.0006101,0.0001205,-0.0392184,-0.0006101,-0.0002771,-0.0016454
1.4825000,1.4825000,1.4825000,-0.0006039,0.0001199,-0.0390192,-0.0006039,-0.0002733,-0.0016297
1.4850000,1.4850000,1.4850000,-0.0005978,0.0001192,-0.0388214,-0.0005978,-0.0002694,-0.0016142
1.4875000,1.4875000,1.4875000,-0.0005917,0.0001186,-0.0386249,-0.0005917,-0.0002656,-0.0015989
1.4900000,1.4900000,1.4900000,-0.0005857,0.0001180,-0.0384297,-0.0005857,-0.0002619,-0.0015837
1.4925000,1.4925000,1.4925000,-0.0005798,0.0001175,-0.0382359,-0.0005798,-0.0002582,-0.0015688
1.4950000,1.4950000,1.4950000,-0.0005740,0.0001169,-0.0380433,-0.0005740,-0.0002546,-0.0015540
1.4975000,1.4975000,1.4975000,-0.0005682,0.0001163,-0.0378521,-0.0005682,-0.0002510,-0.0015394
1.5000000,1.5000000,1.5000000,-0.0005625,0.0001157,-0.0376621,-0.0005625,-0.0002475,-0.0015249
1.5025000,1.5025000,1.5025000,-0.0005568,0.0001151,-0.0374734,-0.0005568,-0.0002440,-0.0015106
1.5050000,1.5050000,1.5050000,-0.0005513,0.0001145,-0.0372860,-0.0005513,-0.0002405,-0.0014965
1.5075000,1.5075000,1.5075000,-0.0005457,0.0001140,-0.0370998,-0.0005457,-0.0002371,-0.0014825
1.5100000,1.5100000,1.5100000,-0.0005403,0.0001134,-0.0369148,-0.0005403,-0.0002338,-0.0014687
1.5125000,1.5125000,1.5125000,-0.0005349,0.0001128,-0.0367311,-0.0005349,-0.0002304,-0.0014550
1.5150000,1.5150000,1.5150000,-0.0005296,0.0001123,-0.0365486,-0.0005296,-0.0002272,-0.0014415
1.5175000,1.5175000,1.5175000,-0.0005243,0.0001117,-0.0363673,-0.0005243,-0.0002239,-0.0014282
1.5200000,1.5200000,1.5200000,-0.0005191,0.0001112,-0.0361872,-0.0005191,-0.0002208,-0.0014149
1.5225000,1.5225000,1.5225000,-0.0005140,0.0001106,-0.0360083,-0.0005140,-0.0002176,-0.0014019
1.5250000,1.5250000,1.5250000,-0.0005089,0.0001101,-0.0358306,-0.0005089,-0.0002145,-0.0013890
1.5275000,1.5275000,1.5275000,-0.0005039,0.0001095,-0.0356540,-0.0005039,-0.0002115,-0.0013762
1.5300000,1.5300000,1.5300000,-0.0004989,0.0001090,-0.0354786,-0.0004989,-0.0002084,-0.0013636
1.5325000,1.5325000,1.5325000,-0.0004940,0.0001085,-0.0353044,-0.0004940,-0.0002054,-0.0013511
1.5350000,1.5350000,1.5350000,-0.0004892,0.0001079,-0.0351313,-0.0004892,-0.0002025,-0.0013388
1.5375000,1.5375000,1.5375000,-0.0004844,0.0001074,-0.0349593,-0.0004844,-0.0001996,-0.0013266
1.5400000,1.5400000,1.5400000,-0.0004796,0.0001069,-0.0347884,-0.0004796,-0.0001967,-0.0013145
1.5425000,1.5425000,1.5425000,-0.0004749,0.0001064,-0.0346187,-0.0004749,-0.0001939,-0.0013025
1.5450000,1.5450000,1.5450000,-0.0004703,0.0001058,-0.0344500,-0.0004703,-0.0001911,-0.0012907
1.5475000,1.5475000,1.5475000,-0.0004657,0.0001053,-0.0342825,-0.0004657,-0.0001883,-0.0012791
1.5500000,1.5500000,1.5500000,-0.0004612,0.0001048,-0.0341160,-0.0004612,-0.0001856,-0.0012675
1.5525000,1.5525000,1.5525000,-0.0004567,0.0001043,-0.0339507,-0.0004567,-0.0001829,-0.0012561
1.5550000,1.5550000,1.5550000,-0.0004523,0.0001038,-0.0337864,-0.0004523,-0.0001803,-0.0012448
1.5575000,1.5575000,1.5575000,-0.0004479,0.0001033,-0.0336231,-0.0004479,-0.0001777,-0.0012336
1.5600000,1.5600000,1.5600000,-0.0004436,0.0001028,-0.0334609,-0.0004436,-0.0001751,-0.0012226
1.5625000,1.5625000,1.5625000,-0.0004393,0.0001023,-0.0332997,-0.0004393,-0.0001725,-0.0012116
1.5650000,1.5650000,1.5650000,-0.0004351,0.0001018,-0.0331396,-0.0004351,-0.0001700,-0.0012008
1.5675000,1.5675000,1.5675000,-0.0004309,0.0001013,-0.0329805,-0.0004309,-0.0001675,-0.0011901
1.5700000,1.5700000,1.5700000,-0.0004267,0.0001009,-0.0328224,-0.0004267,-0.0001651,-0.0011795
1.5725000,1.5725000,1.5725000,-0.0004227,0.0001004,-0.0326654,-0.0004227,-0.0001626,-0.0011691
1.5750000,1.5750000,1.5750000,-0.0004186,0.0000999,-0.0325093,-0.0004186,-0.0001603,-0.0011587
1.5775000,1.5775000,1.5775000,-0.0004146,0.0000994,-0.0323542,-0.0004146,-0.0001579,-0.0011485
1.5800000,1.5800000,1.5800000,-0.0004107,0.0000989,-0.0322001,-0.0004107,-0.0001556,-0.0011384
1.5825000,1.5825000,1.5825000,-0.0004067,0.0000985,-0.0320470,-0.0004067,-0.0001533,-0.0011283
1.5850000,1.5850000,1.5850000,-0.0004029,0.0000980,-0.0318949,-0.0004029,-0.0001510,-0.0011184
1.5875000,1.5875000,1.5875000,-0.0003991,0.0000975,-0.0317437,-0.0003991,-0.0001488,-0.0011086
1.5900000,1.5900000,1.5900000,-0.0003953,0.0000971,-0.0315935,-0.0003953,-0.0001465,-0.0010989
1.5925000,1.5925000,1.5925000,-0.0003915,0.0000966,-0.0314442,-0.0003915,-0.0001444,-0.0010893
1.5950000,1.5950000,1.5950000,-0.0003878,0.0000962,-0.0312959,-0.0003878,-0.0001422,-0.0010798
1.5975000,1.5975000,1.5975000,-0.0003842,0.0000957,-0.0311485,-0.0003842,-0.0001401,-0.0010704
