# r[nm],d[nm],daligned[nm],U(d)[kj/mol],V(d)[e/nm],Uslab(d)[kJ/mol],UC(d)[kJ/mol],UK(d)[kJ/mol],UCl(d)[kJ/mol]
0.1825000,0.1825000,0.1825000,1646.3593188,0.3866909,212.5720711,1646.3593188,1036.5697597,inf
0.1850000,0.1850000,0.1850000,1433.3667551,0.3712858,185.7907681,1433.3667551,901.9539296,inf
0.1875000,0.1875000,0.1875000,1249.6702949,0.3565824,162.5329874,1249.6702949,785.9020339,inf
0.1900000,0.1900000,0.1900000,1090.9911417,0.3425453,142.3077844,1090.9911417,685.7012806,inf
0.1925000,0.1925000,0.1925000,953.7132107,0.3291413,124.6972965,953.7132107,599.0588746,inf
0.1950000,0.1950000,0.1950000,834.7746366,0.3163387,109.3451399,834.7746366,524.0333191,inf
0.1975000,0.1975000,0.1975000,731.5779850,0.3041077,95.9467639,731.5779850,458.9775470,inf
0.2000000,0.2000000,0.2000000,641.9157849,0.2924200,84.2414125,641.9157849,402.4917474,inf
0.2025000,0.2025000,0.2025000,563.9086379,0.2812489,74.0054110,563.9086379,353.3841493,inf
0.2050000,0.2050000,0.2050000,495.9536752,0.2705689,65.0465457,495.9536752,310.6383577,inf
0.2075000,0.2075000,0.2075000,436.6815461,0.2603562,57.1993480,436.6815461,273.3860897,1855.0535797
0.2100000,0.2100000,0.2100000,384.9204556,0.2505880,50.3211303,384.9204556,240.8843755,1637.2090404
0.2125000,0.2125000,0.2125000,339.6660373,0.2412427,44.2886457,339.6660373,212.4964559,1446.8272473
0.2150000,0.2150000,0.2150000,300.0560680,0.2323000,38.9952678,300.0560680,187.6757474,1279.8980883
0.2175000,0.2175000,0.2175000,265.3492071,0.2237406,34.3486042,265.3492071,165.9523565,1133.3555480
0.2200000,0.2200000,0.2200000,234.9070860,0.2155460,30.2684718,234.9070860,146.9217198,1004.5589997
0.2225000,0.2225000,0.2225000,208.1791955,0.2076990,26.6851680,208.1791955,130.2350152,891.2307330
0.2250000,0.2250000,0.2250000,184.6901104,0.2001831,23.5379810,184.6901104,115.5910568,791.4031587
0.2275000,0.2275000,0.2275000,164.0286714,0.1929826,20.7738823,164.0286714,102.7294303,703.3741176
0.2300000,0.2300000,0.2300000,145.8388104,0.1860828,18.3463500,145.8388104,91.4246708,625.6689832
0.2325000,0.2325000,0.2325000,129.8117556,0.1794696,16.2142808,129.8117556,81.4813162,557.0084734
0.2350000,0.2350000,0.2350000,115.6793997,0.1731296,14.3409756,115.6793997,72.7296966,496.2812674
0.2375000,0.2375000,0.2375000,103.2086467,0.1670502,12.6932336,103.2086467,65.0223438,442.5206721
0.2400000,0.2400000,0.2400000,92.1965885,0.1612194,11.2406508,92.1965885,58.2309204,394.8847088
0.2425000,0.2425000,0.2425000,82.4663797,0.1556258,9.9552606,82.4663797,52.2435813,352.6390936
0.2450000,0.2450000,0.2450000,73.8637070,0.1502584,8.8116088,73.8637070,46.9626955,315.1426679
0.2475000,0.2475000,0.2475000,66.2537591,0.1451070,7.7872176,66.2537591,42.3028676,281.8349087
0.2500000,0.2500000,0.2500000,59.5186199,0.1401616,6.8632068,59.5186199,38.1892189,252.2252065
0.2525000,0.2525000,0.2525000,53.5550166,0.1354122,6.0247189,53.5550166,34.5559030,225.8836472
0.2550000,0.2550000,0.2550000,48.2723639,0.1308488,5.2608396,48.2723639,31.3448396,202.4330764
0.2575000,0.2575000,0.2575000,43.5910586,0.1264602,4.5639346,43.5910586,28.5046522,181.5422579
0.2600000,0.2600000,0.2600000,39.4409905,0.1222340,3.9285929,39.4409905,25.9897823,162.9199687
0.2625000,0.2625000,0.2625000,35.7602512,0.1181552,3.3505167,35.7602512,23.7597511,146.3098939
0.2650000,0.2650000,0.2650000,32.4940264,0.1142065,2.8256587,32.4940264,21.7785414,131.4862100
0.2675000,0.2675000,0.2675000,29.5936619,0.1103676,2.3497362,29.5936619,20.0140894,118.2497558
0.2700000,0.2700000,0.2700000,27.0158809,0.1066157,1.9180913,27.0158809,18.4378902,106.4247118
0.2725000,0.2725000,0.2725000,24.7221289,0.1029263,1.5257841,24.7221289,17.0247233,95.8557147
0.2750000,0.2750000,0.2750000,22.6780187,0.0992737,1.1677990,22.6780187,15.7524863,86.4053479
0.2775000,0.2775000,0.2775000,20.8528597,0.0956323,0.8392696,20.8528597,14.6020894,77.9519559
0.2800000,0.2800000,0.2800000,19.2192704,0.0919783,0.5356461,19.2192704,13.5573458,70.3877382
0.2825000,0.2825000,0.2825000,17.7528797,0.0882917,0.2527350,17.7528797,12.6047874,63.6170813
0.2850000,0.2850000,0.2850000,16.4321181,0.0845588,-0.0134178,16.4321181,11.7333741,57.5550966
0.2875000,0.2875000,0.2875000,15.2380796,0.0807740,-0.2667286,15.2380796,10.9341073,52.1263315
0.2900000,0.2900000,0.2900000,14.1544161,0.0769409,-0.5111937,14.1544161,10.1996004,47.2636296
0.2925000,0.2925000,0.2925000,13.1672104,0.0730713,-0.7507560,13.1672104,9.5236706,42.9071209
0.2950000,0.2950000,0.2950000,12.2647885,0.0691821,-0.9888903,12.2647885,8.9010030,39.0033292
0.2975000,0.2975000,0.2975000,11.4374552,0.0652921,-1.2280545,11.4374552,8.3269090,35.5043907
0.3000000,0.3000000,0.3000000,10.6771729,0.0614187,-1.4692545,10.6771729,7.7971733,32.3673768
0.3025000,0.3025000,0.3025000,9.9772226,0.0575759,-1.7119188,9.9772226,7.3079654,29.5537169
0.3050000,0.3050000,0.3050000,9.3318928,0.0537744,-1.9541247,9.3318928,6.8557870,27.0287070
0.3075000,0.3075000,0.3075000,8.7362262,0.0500219,-2.1930681,8.7362262,6.4374313,24.7610910
0.3100000,0.3100000,0.3100000,8.1858378,0.0463255,-2.4256031,8.1858378,6.0499450,22.7226996
0.3125000,0.3125000,0.3125000,7.6767959,0.0426927,-2.6487086,7.6767959,5.6905933,20.8881366
0.3150000,0.3150000,0.3150000,7.2055476,0.0391323,-2.8598144,7.2055476,5.3568310,19.2345096
0.3175000,0.3175000,0.3175000,6.7688689,0.0356546,-3.0569828,6.7688689,5.0462821,17.7412082
0.3200000,0.3200000,0.3200000,6.3638238,0.0322700,-3.2389814,6.3638238,4.7567242,16.3897315
0.3225000,0.3225000,0.3225000,5.9877244,0.0289877,-3.4052767,5.9877244,4.4860754,15.1635592
0.3250000,0.3250000,0.3250000,5.6380935,0.0258145,-3.5559743,5.6380935,4.2323839,14.0480545
0.3275000,0.3275000,0.3275000,5.3126296,0.0227536,-3.6917138,5.3126296,3.9938276,13.0303729
0.3300000,0.3300000,0.3300000,5.0091759,0.0198051,-3.8135325,5.0091759,3.7687208,12.0993566
0.3325000,0.3325000,0.3325000,4.7256939,0.0169670,-3.9227080,4.7256939,3.5555142,11.2453972
0.3350000,0.3350000,0.3350000,4.4602447,0.0142366,-4.0206017,4.4602447,3.3527594,10.4602638
0.3375000,0.3375000,0.3375000,4.2109822,0.0116121,-4.1085198,4.2109822,3.1590235,9.7369086
0.3400000,0.3400000,0.3400000,3.9761597,0.0090932,-4.1876070,3.9761597,2.9727722,9.0692675
0.3425000,0.3425000,0.3425000,3.7541349,0.0066806,-4.2587823,3.7541349,2.7922888,8.4520777
0.3450000,0.3450000,0.3450000,3.5433546,0.0043744,-4.3227162,3.5433546,2.6157032,7.8807251
0.3475000,0.3475000,0.3475000,3.3422998,0.0021717,-4.3798468,3.3422998,2.4411650,7.3511287
0.3500000,0.3500000,0.3500000,3.1494021,0.0000659,-4.4304219,3.1494021,2.2671245,6.8596575
0.3525000,0.3525000,0.3525000,2.9629779,-0.0019545,-4.4745570,2.9629779,2.0926217,6.4030711
0.3550000,0.3550000,0.3550000,2.7812375,-0.0039031,-4.5122957,2.7812375,1.9174768,5.9784722
0.3575000,0.3575000,0.3575000,2.6024061,-0.0057933,-4.5436626,2.6024061,1.7423138,5.5832625
0.3600000,0.3600000,0.3600000,2.4249387,-0.0076341,-4.5687034,2.4249387,1.5684181,5.2150964
0.3625000,0.3625000,0.3625000,2.2477624,-0.0094275,-4.5875107,2.2477624,1.3974843,4.8718309
0.3650000,0.3650000,0.3650000,2.0704590,-0.0111670,-4.6002376,2.0704590,1.2313342,4.5514753
0.3675000,0.3675000,0.3675000,1.8933248,-0.0128387,-4.6071017,1.8933248,1.0716710,4.2521440
0.3700000,0.3700000,0.3700000,1.7172903,-0.0144228,-4.6083817,1.7172903,0.9199044,3.9720206
0.3725000,0.3725000,0.3725000,1.5437328,-0.0158974,-4.6044078,1.5437328,0.7770512,3.7093339
0.3750000,0.3750000,0.3750000,1.3742409,-0.0172408,-4.5955469,1.3742409,0.6436953,3.4623457
0.3775000,0.3775000,0.3775000,1.2103887,-0.0184339,-4.5821841,1.2103887,0.5199907,3.2293392
0.3800000,0.3800000,0.3800000,1.0535584,-0.0194620,-4.5647062,1.0535584,0.4056913,3.0085995
0.3825000,0.3825000,0.3825000,0.9048226,-0.0203149,-4.5434879,0.9048226,0.3002071,2.7983867
0.3850000,0.3850000,0.3850000,0.7648826,-0.0209874,-4.5188871,0.7648826,0.2026847,2.5969160
0.3875000,0.3875000,0.3875000,0.6340494,-0.0214792,-4.4912445,0.6340494,0.1121108,2.4023735
0.3900000,0.3900000,0.3900000,0.5122571,-0.0217940,-4.4608865,0.5122571,0.0274285,2.2129858
0.3925000,0.3925000,0.3925000,0.3991041,-0.0219394,-4.4281257,0.3991041,-0.0523508,2.0271465
0.3950000,0.3950000,0.3950000,0.2939204,-0.0219262,-4.3932577,0.2939204,-0.1280582,1.8435730
0.3975000,0.3975000,0.3975000,0.1958567,-0.0217679,-4.3565558,0.1958567,-0.2003155,1.6614496
0.4000000,0.4000000,0.4000000,0.1039874,-0.0214798,-4.3182658,0.1039874,-0.2695219,1.4805128
0.4025000,0.4025000,0.4025000,0.0174129,-0.0210795,-4.2786036,0.0174129,-0.3358737,1.3010520
0.4050000,0.4050000,0.4050000,-0.0646547,-0.0205856,-4.2377565,-0.0646547,-0.3994037,1.1238265
0.4075000,0.4075000,0.4075000,-0.1428347,-0.0200181,-4.1958895,-0.1428347,-0.4600271,0.9499223
0.4100000,0.4100000,0.4100000,-0.2175535,-0.0193980,-4.1531536,-0.2175535,-0.5175856,0.7805835
0.4125000,0.4125000,0.4125000,-0.2890515,-0.0187459,-4.1096961,-0.2890515,-0.5718847,0.6170514
0.4150000,0.4150000,0.4150000,-0.3574099,-0.0180817,-4.0656696,-0.3574099,-0.6227236,0.4604319
0.4175000,0.4175000,0.4175000,-0.4225899,-0.0174230,-4.0212357,-0.4225899,-0.6699177,0.3116000
0.4200000,0.4200000,0.4200000,-0.4844729,-0.0167843,-3.9765628,-0.4844729,-0.7133152,0.1711414
0.4225000,0.4225000,0.4225000,-0.5428975,-0.0161765,-3.9318166,-0.5428975,-0.7528086,0.0393288
0.4250000,0.4250000,0.4250000,-0.5976907,-0.0156066,-3.8871463,-0.5976907,-0.7883411,-0.0838721
0.4275000,0.4275000,0.4275000,-0.6486913,-0.0150784,-3.8426727,-0.6486913,-0.8199082,-0.1987698
0.4300000,0.4300000,0.4300000,-0.6957669,-0.0145929,-3.7984823,-0.6957669,-0.8475570,-0.3058896
0.4325000,0.4325000,0.4325000,-0.7388252,-0.0141493,-3.7546285,-0.7388252,-0.8713808,-0.4059012
0.4350000,0.4350000,0.4350000,-0.7778199,-0.0137452,-3.7111390,-0.7778199,-0.8915122,-0.4995382
0.4375000,0.4375000,0.4375000,-0.8127527,-0.0133777,-3.6680247,-0.8127527,-0.9081152,-0.5875207
0.4400000,0.4400000,0.4400000,-0.8436724,-0.0130428,-3.6252858,-0.8436724,-0.9213761,-0.6704926
0.4425000,0.4425000,0.4425000,-0.8706708,-0.0127362,-3.5829132,-0.8706708,-0.9314968,-0.7489775
0.4450000,0.4450000,0.4450000,-0.8938776,-0.0124530,-3.5408866,-0.8938776,-0.9386882,-0.8233578
0.4475000,0.4475000,0.4475000,-0.9134524,-0.0121883,-3.4991727,-0.9134524,-0.9431670,-0.8938744
0.4500000,0.4500000,0.4500000,-0.9295783,-0.0119371,-3.4577236,-0.9295783,-0.9451523,-0.9606421
0.4525000,0.4525000,0.4525000,-0.9424538,-0.0116949,-3.4164801,-0.9424538,-0.9448641,-1.0236753
0.4550000,0.4550000,0.4550000,-0.9522878,-0.0114575,-3.3753764,-0.9522878,-0.9425214,-1.0829181
0.4575000,0.4575000,0.4575000,-0.9592946,-0.0112215,-3.3343470,-0.9592946,-0.9383407,-1.1382744
0.4600000,0.4600000,0.4600000,-0.9636910,-0.0109840,-3.2933326,-0.9636910,-0.9325344,-1.1896348
0.4625000,0.4625000,0.4625000,-0.9656944,-0.0107429,-3.2522858,-0.9656944,-0.9253092,-1.2368984
0.4650000,0.4650000,0.4650000,-0.9655211,-0.0104966,-3.2111743,-0.9655211,-0.9168635,-1.2799885
0.4675000,0.4675000,0.4675000,-0.9633851,-0.0102439,-3.1699819,-0.9633851,-0.9073843,-1.3188630
0.4700000,0.4700000,0.4700000,-0.9594964,-0.0099839,-3.1287086,-0.9594964,-0.8970439,-1.3535191
0.4725000,0.4725000,0.4725000,-0.9540601,-0.0097161,-3.0873686,-0.9540601,-0.8859962,-1.3839951
0.4750000,0.4750000,0.4750000,-0.9472744,-0.0094401,-3.0459884,-0.9472744,-0.8743731,-1.4103682
0.4775000,0.4775000,0.4775000,-0.9393277,-0.0091555,-3.0046035,-0.9393277,-0.8622835,-1.4327507
0.4800000,0.4800000,0.4800000,-0.9303958,-0.0088624,-2.9632563,-0.9303958,-0.8498133,-1.4512849
0.4825000,0.4825000,0.4825000,-0.9206383,-0.0085613,-2.9219933,-0.9206383,-0.8370271,-1.4661373
0.4850000,0.4850000,0.4850000,-0.9101953,-0.0082529,-2.8808630,-0.9101953,-0.8239728,-1.4774926
0.4875000,0.4875000,0.4875000,-0.8991851,-0.0079384,-2.8399142,-0.8991851,-0.8106864,-1.4855486
0.4900000,0.4900000,0.4900000,-0.8877036,-0.0076199,-2.7991945,-0.8877036,-0.7971981,-1.4905110
0.4925000,0.4925000,0.4925000,-0.8758256,-0.0072994,-2.7587490,-0.8758256,-0.7835374,-1.4925903
0.4950000,0.4950000,0.4950000,-0.8636076,-0.0069796,-2.7186202,-0.8636076,-0.7697367,-1.4919990
0.4975000,0.4975000,0.4975000,-0.8510923,-0.0066628,-2.6788470,-0.8510923,-0.7558324,-1.4889497
0.5000000,0.5000000,0.5000000,-0.8383144,-0.0063515,-2.6394644,-0.8383144,-0.7418650,-1.4836541
0.5025000,0.5025000,0.5025000,-0.8253054,-0.0060476,-2.6005038,-0.8253054,-0.7278776,-1.4763217
0.5050000,0.5050000,0.5050000,-0.8120974,-0.0057524,-2.5619927,-0.8120974,-0.7139153,-1.4671592
0.5075000,0.5075000,0.5075000,-0.7987255,-0.0054669,-2.5239548,-0.7987255,-0.7000236,-1.4563690
0.5100000,0.5100000,0.5100000,-0.7852285,-0.0051912,-2.4864104,-0.7852285,-0.6862471,-1.4441478
0.5125000,0.5125000,0.5125000,-0.7716486,-0.0049253,-2.4493766,-0.7716486,-0.6726270,-1.4306839
0.5150000,0.5150000,0.5150000,-0.7580304,-0.0046686,-2.4128672,-0.7580304,-0.6591974,-1.4161549
0.5175000,0.5175000,0.5175000,-0.7444204,-0.0044205,-2.3768933,-0.7444204,-0.6459829,-1.4007240
0.5200000,0.5200000,0.5200000,-0.7308643,-0.0041798,-2.3414635,-0.7308643,-0.6329963,-1.3845376
0.5225000,0.5225000,0.5225000,-0.7174047,-0.0039459,-2.3065839,-0.7174047,-0.6202385,-1.3677228
0.5250000,0.5250000,0.5250000,-0.7040778,-0.0037179,-2.2722588,-0.7040778,-0.6077004,-1.3503865
0.5275000,0.5275000,0.5275000,-0.6909108,-0.0034956,-2.2384904,-0.6909108,-0.5953650,-1.3326163
0.5300000,0.5300000,0.5300000,-0.6779198,-0.0032791,-2.2052795,-0.6779198,-0.5832109,-1.3144826
0.5325000,0.5325000,0.5325000,-0.6651095,-0.0030691,-2.1726252,-0.6651095,-0.5712160,-1.2960419
0.5350000,0.5350000,0.5350000,-0.6524748,-0.0028665,-2.1405255,-0.6524748,-0.5593596,-1.2773412
0.5375000,0.5375000,0.5375000,-0.6400028,-0.0026724,-2.1089774,-0.6400028,-0.5476245,-1.2584218
0.5400000,0.5400000,0.5400000,-0.6276760,-0.0024881,-2.0779765,-0.6276760,-0.5359982,-1.2393227
0.5425000,0.5425000,0.5425000,-0.6154752,-0.0023147,-2.0475182,-0.6154752,-0.5244728,-1.2200830
0.5450000,0.5450000,0.5450000,-0.6033821,-0.0021532,-2.0175967,-0.6033821,-0.5130456,-1.2007438
0.5475000,0.5475000,0.5475000,-0.5913811,-0.0020042,-1.9882057,-0.5913811,-0.5017176,-1.1813479
0.5500000,0.5500000,0.5500000,-0.5794610,-0.0018681,-1.9593386,-0.5794610,-0.4904935,-1.1619397
0.5525000,0.5525000,0.5525000,-0.5676148,-0.0017450,-1.9309882,-0.5676148,-0.4793803,-1.1425637
0.5550000,0.5550000,0.5550000,-0.5558401,-0.0016347,-1.9031470,-0.5558401,-0.4683870,-1.1232617
0.5575000,0.5575000,0.5575000,-0.5441386,-0.0015368,-1.8758072,-0.5441386,-0.4575233,-1.1040704
0.5600000,0.5600000,0.5600000,-0.5325157,-0.0014506,-1.8489608,-0.5325157,-0.4467996,-1.0850192
0.5625000,0.5625000,0.5625000,-0.5209791,-0.0013754,-1.8225995,-0.5209791,-0.4362259,-1.0661290
0.5650000,0.5650000,0.5650000,-0.5095387,-0.0013104,-1.7967152,-0.5095387,-0.4258119,-1.0474110
0.5675000,0.5675000,0.5675000,-0.4982055,-0.0012547,-1.7712993,-0.4982055,-0.4155664,-1.0288684
0.5700000,0.5700000,0.5700000,-0.4869913,-0.0012073,-1.7463435,-0.4869913,-0.4054975,-1.0104969
0.5725000,0.5725000,0.5725000,-0.4759077,-0.0011675,-1.7218392,-0.4759077,-0.3956119,-0.9922877
0.5750000,0.5750000,0.5750000,-0.4649661,-0.0011343,-1.6977780,-0.4649661,-0.3859157,-0.9742288
0.5775000,0.5775000,0.5775000,-0.4541773,-0.0011070,-1.6741515,-0.4541773,-0.3764135,-0.9563083
0.5800000,0.5800000,0.5800000,-0.4435509,-0.0010849,-1.6509513,-0.4435509,-0.3671090,-0.9385149
0.5825000,0.5825000,0.5825000,-0.4330959,-0.0010671,-1.6281689,-0.4330959,-0.3580050,-0.9208401
0.5850000,0.5850000,0.5850000,-0.4228199,-0.0010531,-1.6057963,-0.4228199,-0.3491032,-0.9032786
0.5875000,0.5875000,0.5875000,-0.4127295,-0.0010423,-1.5838251,-0.4127295,-0.3404045,-0.8858288
0.5900000,0.5900000,0.5900000,-0.4028302,-0.0010343,-1.5622475,-0.4028302,-0.3319091,-0.8684925
0.5925000,0.5925000,0.5925000,-0.3931262,-0.0010285,-1.5410553,-0.3931262,-0.3236165,-0.8512750
0.5950000,0.5950000,0.5950000,-0.3836211,-0.0010246,-1.5202408,-0.3836211,-0.3155256,-0.8341841
0.5975000,0.5975000,0.5975000,-0.3743171,-0.0010223,-1.4997962,-0.3743171,-0.3076346,-0.8172300
0.6000000,0.6000000,0.6000000,-0.3652157,-0.0010211,-1.4797139,-0.3652157,-0.2999416,-0.8004245
0.6025000,0.6025000,0.6025000,-0.3563178,-0.0010210,-1.4599866,-0.3563178,-0.2924439,-0.7837803
0.6050000,0.6050000,0.6050000,-0.3476232,-0.0010215,-1.4406068,-0.3476232,-0.2851387,-0.7673107
0.6075000,0.6075000,0.6075000,-0.3391315,-0.0010226,-1.4215675,-0.3391315,-0.2780229,-0.7510289
0.6100000,0.6100000,0.6100000,-0.3308412,-0.0010241,-1.4028614,-0.3308412,-0.2710932,-0.7349478
0.6125000,0.6125000,0.6125000,-0.3227509,-0.0010258,-1.3844818,-0.3227509,-0.2643460,-0.7190798
0.6150000,0.6150000,0.6150000,-0.3148583,-0.0010276,-1.3664218,-0.3148583,-0.2577776,-0.7034362
0.6175000,0.6175000,0.6175000,-0.3071611,-0.0010294,-1.3486748,-0.3071611,-0.2513842,-0.6880273
0.6200000,0.6200000,0.6200000,-0.2996563,-0.0010312,-1.3312343,-0.2996563,-0.2451620,-0.6728623
0.6225000,0.6225000,0.6225000,-0.2923411,-0.0010329,-1.3140940,-0.2923411,-0.2391070,-0.6579494
0.6250000,0.6250000,0.6250000,-0.2852120,-0.0010343,-1.2972476,-0.2852120,-0.2332152,-0.6432953
0.6275000,0.6275000,0.6275000,-0.2782657,-0.0010355,-1.2806890,-0.2782657,-0.2274827,-0.6289057
0.6300000,0.6300000,0.6300000,-0.2714986,-0.0010365,-1.2644123,-0.2714986,-0.2219054,-0.6147850
0.6325000,0.6325000,0.6325000,-0.2649071,-0.0010371,-1.2484116,-0.2649071,-0.2164794,-0.6009368
0.6350000,0.6350000,0.6350000,-0.2584873,-0.0010375,-1.2326812,-0.2584873,-0.2112008,-0.5873634
0.6375000,0.6375000,0.6375000,-0.2522355,-0.0010375,-1.2172156,-0.2522355,-0.2060657,-0.5740663
0.6400000,0.6400000,0.6400000,-0.2461477,-0.0010371,-1.2020094,-0.2461477,-0.2010701,-0.5610460
0.6425000,0.6425000,0.6425000,-0.2402202,-0.0010365,-1.1870571,-0.2402202,-0.1962104,-0.5483026
0.6450000,0.6450000,0.6450000,-0.2344490,-0.0010355,-1.1723536,-0.2344490,-0.1914828,-0.5358349
0.6475000,0.6475000,0.6475000,-0.2288303,-0.0010341,-1.1578938,-0.2288303,-0.1868837,-0.5236415
0.6500000,0.6500000,0.6500000,-0.2233602,-0.0010325,-1.1436728,-0.2233602,-0.1824094,-0.5117203
0.6525000,0.6525000,0.6525000,-0.2180350,-0.0010305,-1.1296856,-0.2180350,-0.1780565,-0.5000688
0.6550000,0.6550000,0.6550000,-0.2128509,-0.0010281,-1.1159276,-0.2128509,-0.1738215,-0.4886839
0.6575000,0.6575000,0.6575000,-0.2078043,-0.0010255,-1.1023941,-0.2078043,-0.1697011,-0.4775623
0.6600000,0.6600000,0.6600000,-0.2028913,-0.0010226,-1.0890805,-0.2028913,-0.1656919,-0.4667001
0.6625000,0.6625000,0.6625000,-0.1981086,-0.0010193,-1.0759825,-0.1981086,-0.1617909,-0.4560936
0.6650000,0.6650000,0.6650000,-0.1934525,-0.0010158,-1.0630957,-0.1934525,-0.1579949,-0.4457384
0.6675000,0.6675000,0.6675000,-0.1889196,-0.0010121,-1.0504159,-0.1889196,-0.1543009,-0.4356302
0.6700000,0.6700000,0.6700000,-0.1845066,-0.0010081,-1.0379390,-0.1845066,-0.1507059,-0.4257645
0.6725000,0.6725000,0.6725000,-0.1802101,-0.0010038,-1.0256609,-0.1802101,-0.1472070,-0.4161366
0.6750000,0.6750000,0.6750000,-0.1760269,-0.0009993,-1.0135777,-0.1760269,-0.1438015,-0.4067417
0.6775000,0.6775000,0.6775000,-0.1719538,-0.0009946,-1.0016856,-0.1719538,-0.1404867,-0.3975751
0.6800000,0.6800000,0.6800000,-0.1679879,-0.0009897,-0.9899807,-0.1679879,-0.1372599,-0.3886319
0.6825000,0.6825000,0.6825000,-0.1641260,-0.0009846,-0.9784595,-0.1641260,-0.1341186,-0.3799073
0.6850000,0.6850000,0.6850000,-0.1603653,-0.0009794,-0.9671183,-0.1603653,-0.1310602,-0.3713964
0.6875000,0.6875000,0.6875000,-0.1567029,-0.0009739,-0.9559536,-0.1567029,-0.1280824,-0.3630943
0.6900000,0.6900000,0.6900000,-0.1531361,-0.0009683,-0.9449621,-0.1531361,-0.1251829,-0.3549962
0.6925000,0.6925000,0.6925000,-0.1496621,-0.0009626,-0.9341402,-0.1496621,-0.1223593,-0.3470972
0.6950000,0.6950000,0.6950000,-0.1462783,-0.0009567,-0.9234848,-0.1462783,-0.1196095,-0.3393928
0.6975000,0.6975000,0.6975000,-0.1429823,-0.0009507,-0.9129927,-0.1429823,-0.1169313,-0.3318781
0.7000000,0.7000000,0.7000000,-0.1397714,-0.0009446,-0.9026608,-0.1397714,-0.1143226,-0.3245485
0.7025000,0.7025000,0.7025000,-0.1366433,-0.0009384,-0.8924859,-0.1366433,-0.1117815,-0.3173994
0.7050000,0.7050000,0.7050000,-0.1335957,-0.0009320,-0.8824651,-0.1335957,-0.1093060,-0.3104265
0.7075000,0.7075000,0.7075000,-0.1306263,-0.0009256,-0.8725955,-0.1306263,-0.1068942,-0.3036251
0.7100000,0.7100000,0.7100000,-0.1277328,-0.0009192,-0.8628742,-0.1277328,-0.1045443,-0.2969911
0.7125000,0.7125000,0.7125000,-0.1249131,-0.0009126,-0.8532985,-0.1249131,-0.1022544,-0.2905202
0.7150000,0.7150000,0.7150000,-0.1221652,-0.0009060,-0.8438655,-0.1221652,-0.1000230,-0.2842082
0.7175000,0.7175000,0.7175000,-0.1194870,-0.0008993,-0.8345727,-0.1194870,-0.0978482,-0.2780509
0.7200000,0.7200000,0.7200000,-0.1168766,-0.0008926,-0.8254174,-0.1168766,-0.0957285,-0.2720446
0.7225000,0.7225000,0.7225000,-0.1143320,-0.0008858,-0.8163971,-0.1143320,-0.0936624,-0.2661851
0.7250000,0.7250000,0.7250000,-0.1118514,-0.0008790,-0.8075093,-0.1118514,-0.0916482,-0.2604688
0.7275000,0.7275000,0.7275000,-0.1094331,-0.0008721,-0.7987515,-0.1094331,-0.0896846,-0.2548919
0.7300000,0.7300000,0.7300000,-0.1070752,-0.0008653,-0.7901214,-0.1070752,-0.0877700,-0.2494507
0.7325000,0.7325000,0.7325000,-0.1047761,-0.0008584,-0.7816166,-0.1047761,-0.0859032,-0.2441418
0.7350000,0.7350000,0.7350000,-0.1025342,-0.0008515,-0.7732348,-0.1025342,-0.0840827,-0.2389616
0.7375000,0.7375000,0.7375000,-0.1003478,-0.0008446,-0.7649739,-0.1003478,-0.0823074,-0.2339068
0.7400000,0.7400000,0.7400000,-0.0982154,-0.0008377,-0.7568315,-0.0982154,-0.0805758,-0.2289741
0.7425000,0.7425000,0.7425000,-0.0961355,-0.0008307,-0.7488056,-0.0961355,-0.0788868,-0.2241603
0.7450000,0.7450000,0.7450000,-0.0941067,-0.0008238,-0.7408942,-0.0941067,-0.0772392,-0.2194623
0.7475000,0.7475000,0.7475000,-0.0921276,-0.0008169,-0.7330950,-0.0921276,-0.0756318,-0.2148770
0.7500000,0.7500000,0.7500000,-0.0901967,-0.0008100,-0.7254062,-0.0901967,-0.0740636,-0.2104015
0.7525000,0.7525000,0.7525000,-0.0883129,-0.0008031,-0.7178258,-0.0883129,-0.0725335,-0.2060329
0.7550000,0.7550000,0.7550000,-0.0864747,-0.0007962,-0.7103518,-0.0864747,-0.0710403,-0.2017684
0.7575000,0.7575000,0.7575000,-0.0846809,-0.0007894,-0.7029825,-0.0846809,-0.0695832,-0.1976052
0.7600000,0.7600000,0.7600000,-0.0829303,-0.0007826,-0.6957158,-0.0829303,-0.0681610,-0.1935407
0.7625000,0.7625000,0.7625000,-0.0812218,-0.0007758,-0.6885501,-0.0812218,-0.0667729,-0.1895724
0.7650000,0.7650000,0.7650000,-0.0795543,-0.0007690,-0.6814836,-0.0795543,-0.0654179,-0.1856977
0.7675000,0.7675000,0.7675000,-0.0779265,-0.0007622,-0.6745146,-0.0779265,-0.0640952,-0.1819141
0.7700000,0.7700000,0.7700000,-0.0763374,-0.0007555,-0.6676413,-0.0763374,-0.0628038,-0.1782193
0.7725000,0.7725000,0.7725000,-0.0747860,-0.0007488,-0.6608621,-0.0747860,-0.0615429,-0.1746110
0.7750000,0.7750000,0.7750000,-0.0732713,-0.0007422,-0.6541754,-0.0732713,-0.0603117,-0.1710869
0.7775000,0.7775000,0.7775000,-0.0717923,-0.0007356,-0.6475797,-0.0717923,-0.0591094,-0.1676449
0.7800000,0.7800000,0.7800000,-0.0703480,-0.0007290,-0.6410733,-0.0703480,-0.0579352,-0.1642827
0.7825000,0.7825000,0.7825000,-0.0689376,-0.0007224,-0.6346547,-0.0689376,-0.0567884,-0.1609984
0.7850000,0.7850000,0.7850000,-0.0675601,-0.0007159,-0.6283224,-0.0675601,-0.0556683,-0.1577899
0.7875000,0.7875000,0.7875000,-0.0662146,-0.0007095,-0.6220751,-0.0662146,-0.0545740,-0.1546552
0.7900000,0.7900000,0.7900000,-0.0649003,-0.0007031,-0.6159112,-0.0649003,-0.0535050,-0.1515926
0.7925000,0.7925000,0.7925000,-0.0636164,-0.0006967,-0.6098293,-0.0636164,-0.0524607,-0.1486000
0.7950000,0.7950000,0.7950000,-0.0623621,-0.0006904,-0.6038282,-0.0623621,-0.0514402,-0.1456758
0.7975000,0.7975000,0.7975000,-0.0611366,-0.0006841,-0.5979063,-0.0611366,-0.0504431,-0.1428181
0.8000000,0.8000000,0.8000000,-0.0599392,-0.0006779,-0.5920625,-0.0599392,-0.0494687,-0.1400253
0.8025000,0.8025000,0.8025000,-0.0587691,-0.0006717,-0.5862954,-0.0587691,-0.0485164,-0.1372956
0.8050000,0.8050000,0.8050000,-0.0576256,-0.0006656,-0.5806037,-0.0576256,-0.0475856,-0.1346276
0.8075000,0.8075000,0.8075000,-0.0565080,-0.0006595,-0.5749863,-0.0565080,-0.0466758,-0.1320197
0.8100000,0.8100000,0.8100000,-0.0554158,-0.0006535,-0.5694419,-0.0554158,-0.0457865,-0.1294702
0.8125000,0.8125000,0.8125000,-0.0543481,-0.0006475,-0.5639692,-0.0543481,-0.0449171,-0.1269778
0.8150000,0.8150000,0.8150000,-0.0533044,-0.0006416,-0.5585672,-0.0533044,-0.0440671,-0.1245410
0.8175000,0.8175000,0.8175000,-0.0522841,-0.0006357,-0.5532347,-0.0522841,-0.0432361,-0.1221584
0.8200000,0.8200000,0.8200000,-0.0512866,-0.0006299,-0.5479706,-0.0512866,-0.0424234,-0.1198286
0.8225000,0.8225000,0.8225000,-0.0503112,-0.0006241,-0.5427737,-0.0503112,-0.0416287,-0.1175504
0.8250000,0.8250000,0.8250000,-0.0493575,-0.0006184,-0.5376430,-0.0493575,-0.0408516,-0.1153224
0.8275000,0.8275000,0.8275000,-0.0484249,-0.0006127,-0.5325774,-0.0484249,-0.0400915,-0.1131434
0.8300000,0.8300000,0.8300000,-0.0475129,-0.0006071,-0.5275759,-0.0475129,-0.0393481,-0.1110121
0.8325000,0.8325000,0.8325000,-0.0466208,-0.0006015,-0.5226375,-0.0466208,-0.0386208,-0.1089274
0.8350000,0.8350000,0.8350000,-0.0457484,-0.0005960,-0.5177611,-0.0457484,-0.0379094,-0.1068882
0.8375000,0.8375000,0.8375000,-0.0448950,-0.0005905,-0.5129458,-0.0448950,-0.0372135,-0.1048933
0.8400000,0.8400000,0.8400000,-0.0440601,-0.0005851,-0.5081907,-0.0440601,-0.0365325,-0.1029416
0.8425000,0.8425000,0.8425000,-0.0432434,-0.0005797,-0.5034947,-0.0432434,-0.0358663,-0.1010321
0.8450000,0.8450000,0.8450000,-0.0424443,-0.0005744,-0.4988570,-0.0424443,-0.0352143,-0.0991637
0.8475000,0.8475000,0.8475000,-0.0416625,-0.0005691,-0.4942766,-0.0416625,-0.0345763,-0.0973354
0.8500000,0.8500000,0.8500000,-0.0408975,-0.0005639,-0.4897526,-0.0408975,-0.0339519,-0.0955463
0.8525000,0.8525000,0.8525000,-0.0401489,-0.0005588,-0.4852843,-0.0401489,-0.0333408,-0.0937954
0.8550000,0.8550000,0.8550000,-0.0394163,-0.0005537,-0.4808706,-0.0394163,-0.0327427,-0.0920817
0.8575000,0.8575000,0.8575000,-0.0386993,-0.0005486,-0.4765109,-0.0386993,-0.0321572,-0.0904045
0.8600000,0.8600000,0.8600000,-0.0379975,-0.0005436,-0.4722042,-0.0379975,-0.0315840,-0.0887627
0.8625000,0.8625000,0.8625000,-0.0373106,-0.0005386,-0.4679497,-0.0373106,-0.0310229,-0.0871556
0.8650000,0.8650000,0.8650000,-0.0366382,-0.0005337,-0.4637466,-0.0366382,-0.0304736,-0.0855823
0.8675000,0.8675000,0.8675000,-0.0359799,-0.0005289,-0.4595943,-0.0359799,-0.0299356,-0.0840420
0.8700000,0.8700000,0.8700000,-0.0353354,-0.0005241,-0.4554918,-0.0353354,-0.0294089,-0.0825339
0.8725000,0.8725000,0.8725000,-0.0347044,-0.0005193,-0.4514384,-0.0347044,-0.0288931,-0.0810573
0.8750000,0.8750000,0.8750000,-0.0340866,-0.0005146,-0.4474335,-0.0340866,-0.0283880,-0.0796115
0.8775000,0.8775000,0.8775000,-0.0334816,-0.0005100,-0.4434762,-0.0334816,-0.0278933,-0.0781956
0.8800000,0.8800000,0.8800000,-0.0328892,-0.0005053,-0.4395659,-0.0328892,-0.0274088,-0.0768089
0.8825000,0.8825000,0.8825000,-0.0323090,-0.0005008,-0.4357018,-0.0323090,-0.0269342,-0.0754509
0.8850000,0.8850000,0.8850000,-0.0317408,-0.0004963,-0.4318833,-0.0317408,-0.0264692,-0.0741208
0.8875000,0.8875000,0.8875000,-0.0311842,-0.0004918,-0.4281097,-0.0311842,-0.0260138,-0.0728180
0.8900000,0.8900000,0.8900000,-0.0306390,-0.0004874,-0.4243803,-0.0306390,-0.0255676,-0.0715418
0.8925000,0.8925000,0.8925000,-0.0301050,-0.0004830,-0.4206946,-0.0301050,-0.0251304,-0.0702916
0.8950000,0.8950000,0.8950000,-0.0295819,-0.0004786,-0.4170517,-0.0295819,-0.0247020,-0.0690669
0.8975000,0.8975000,0.8975000,-0.0290693,-0.0004744,-0.4134512,-0.0290693,-0.0242823,-0.0678669
0.9000000,0.9000000,0.9000000,-0.0285671,-0.0004701,-0.4098923,-0.0285671,-0.0238709,-0.0666912
0.9025000,0.9025000,0.9025000,-0.0280751,-0.0004659,-0.4063746,-0.0280751,-0.0234678,-0.0655392
0.9050000,0.9050000,0.9050000,-0.0275930,-0.0004618,-0.4028973,-0.0275930,-0.0230728,-0.0644104
0.9075000,0.9075000,0.9075000,-0.0271205,-0.0004577,-0.3994599,-0.0271205,-0.0226855,-0.0633042
0.9100000,0.9100000,0.9100000,-0.0266575,-0.0004536,-0.3960619,-0.0266575,-0.0223060,-0.0622200
0.9125000,0.9125000,0.9125000,-0.0262037,-0.0004496,-0.3927026,-0.0262037,-0.0219339,-0.0611575
0.9150000,0.9150000,0.9150000,-0.0257590,-0.0004456,-0.3893816,-0.0257590,-0.0215692,-0.0601161
0.9175000,0.9175000,0.9175000,-0.0253231,-0.0004417,-0.3860982,-0.0253231,-0.0212117,-0.0590954
0.9200000,0.9200000,0.9200000,-0.0248957,-0.0004378,-0.3828519,-0.0248957,-0.0208611,-0.0580948
0.9225000,0.9225000,0.9225000,-0.0244769,-0.0004339,-0.3796422,-0.0244769,-0.0205174,-0.0571139
0.9250000,0.9250000,0.9250000,-0.0240662,-0.0004301,-0.3764686,-0.0240662,-0.0201803,-0.0561523
0.9275000,0.9275000,0.9275000,-0.0236636,-0.0004263,-0.3733306,-0.0236636,-0.0198499,-0.0552095
0.9300000,0.9300000,0.9300000,-0.0232689,-0.0004226,-0.3702276,-0.0232689,-0.0195258,-0.0542851
0.9325000,0.9325000,0.9325000,-0.0228818,-0.0004189,-0.3671592,-0.0228818,-0.0192079,-0.0533788
0.9350000,0.9350000,0.9350000,-0.0225023,-0.0004152,-0.3641249,-0.0225023,-0.0188962,-0.0524901
0.9375000,0.9375000,0.9375000,-0.0221302,-0.0004116,-0.3611242,-0.0221302,-0.0185904,-0.0516186
0.9400000,0.9400000,0.9400000,-0.0217652,-0.0004081,-0.3581567,-0.0217652,-0.0182905,-0.0507639
0.9425000,0.9425000,0.9425000,-0.0214073,-0.0004045,-0.3552219,-0.0214073,-0.0179963,-0.0499257
0.9450000,0.9450000,0.9450000,-0.0210562,-0.0004010,-0.3523192,-0.0210562,-0.0177077,-0.0491036
0.9475000,0.9475000,0.9475000,-0.0207119,-0.0003976,-0.3494484,-0.0207119,-0.0174246,-0.0482973
0.9500000,0.9500000,0.9500000,-0.0203741,-0.0003941,-0.3466090,-0.0203741,-0.0171468,-0.0475064
0.9525000,0.9525000,0.9525000,-0.0200428,-0.0003907,-0.3438004,-0.0200428,-0.0168743,-0.0467305
0.9550000,0.9550000,0.9550000,-0.0197178,-0.0003874,-0.3410224,-0.0197178,-0.0166069,-0.0459694
0.9575000,0.9575000,0.9575000,-0.0193989,-0.0003841,-0.3382744,-0.0193989,-0.0163445,-0.0452228
0.9600000,0.9600000,0.9600000,-0.0190861,-0.0003808,-0.3355562,-0.0190861,-0.0160870,-0.0444902
0.9625000,0.9625000,0.9625000,-0.0187792,-0.0003775,-0.3328671,-0.0187792,-0.0158343,-0.0437715
0.9650000,0.9650000,0.9650000,-0.0184780,-0.0003743,-0.3302070,-0.0184780,-0.0155862,-0.0430662
0.9675000,0.9675000,0.9675000,-0.0181825,-0.0003712,-0.3275754,-0.0181825,-0.0153428,-0.0423742
0.9700000,0.9700000,0.9700000,-0.0178924,-0.0003680,-0.3249718,-0.0178924,-0.0151039,-0.0416952
0.9725000,0.9725000,0.9725000,-0.0176078,-0.0003649,-0.3223960,-0.0176078,-0.0148694,-0.0410288
0.9750000,0.9750000,0.9750000,-0.0173285,-0.0003618,-0.3198476,-0.0173285,-0.0146392,-0.0403748
0.9775000,0.9775000,0.9775000,-0.0170544,-0.0003588,-0.3173261,-0.0170544,-0.0144132,-0.0397329
0.9800000,0.9800000,0.9800000,-0.0167853,-0.0003558,-0.3148313,-0.0167853,-0.0141913,-0.0391029
0.9825000,0.9825000,0.9825000,-0.0165212,-0.0003528,-0.3123627,-0.0165212,-0.0139735,-0.0384846
0.9850000,0.9850000,0.9850000,-0.0162620,-0.0003498,-0.3099201,-0.0162620,-0.0137596,-0.0378776
0.9875000,0.9875000,0.9875000,-0.0160075,-0.0003469,-0.3075031,-0.0160075,-0.0135496,-0.0372817
0.9900000,0.9900000,0.9900000,-0.0157577,-0.0003440,-0.3051113,-0.0157577,-0.0133434,-0.0366968
0.9925000,0.9925000,0.9925000,-0.0155124,-0.0003412,-0.3027444,-0.0155124,-0.0131410,-0.0361226
0.9950000,0.9950000,0.9950000,-0.0152716,-0.0003383,-0.3004022,-0.0152716,-0.0129421,-0.0355588
0.9975000,0.9975000,0.9975000,-0.0150351,-0.0003355,-0.2980842,-0.0150351,-0.0127468,-0.0350052
1.0000000,1.0000000,1.0000000,-0.0148029,-0.0003328,-0.2957901,-0.0148029,-0.0125550,-0.0344617
1.0025000,1.0025000,1.0025000,-0.0145750,-0.0003300,-0.2935198,-0.0145750,-0.0123667,-0.0339280
1.0050000,1.0050000,1.0050000,-0.0143511,-0.0003273,-0.2912727,-0.0143511,-0.0121816,-0.0334039
1.0075000,1.0075000,1.0075000,-0.0141312,-0.0003246,-0.2890487,-0.0141312,-0.0119999,-0.0328893
1.0100000,1.0100000,1.0100000,-0.0139153,-0.0003220,-0.2868475,-0.0139153,-0.0118214,-0.0323838
1.0125000,1.0125000,1.0125000,-0.0137032,-0.0003194,-0.2846687,-0.0137032,-0.0116460,-0.0318874
1.0150000,1.0150000,1.0150000,-0.0134949,-0.0003168,-0.2825120,-0.0134949,-0.0114737,-0.0313999
1.0175000,1.0175000,1.0175000,-0.0132903,-0.0003142,-0.2803773,-0.0132903,-0.0113044,-0.0309210
1.0200000,1.0200000,1.0200000,-0.0130894,-0.0003116,-0.2782641,-0.0130894,-0.0111380,-0.0304507
1.0225000,1.0225000,1.0225000,-0.0128919,-0.0003091,-0.2761723,-0.0128919,-0.0109746,-0.0299886
1.0250000,1.0250000,1.0250000,-0.0126980,-0.0003066,-0.2741015,-0.0126980,-0.0108140,-0.0295348
1.0275000,1.0275000,1.0275000,-0.0125075,-0.0003042,-0.2720515,-0.0125075,-0.0106562,-0.0290889
1.0300000,1.0300000,1.0300000,-0.0123203,-0.0003017,-0.2700221,-0.0123203,-0.0105012,-0.0286508
1.0325000,1.0325000,1.0325000,-0.0121364,-0.0002993,-0.2680129,-0.0121364,-0.0103488,-0.0282204
1.0350000,1.0350000,1.0350000,-0.0119557,-0.0002969,-0.2660237,-0.0119557,-0.0101990,-0.0277976
1.0375000,1.0375000,1.0375000,-0.0117781,-0.0002945,-0.2640543,-0.0117781,-0.0100518,-0.0273821
1.0400000,1.0400000,1.0400000,-0.0116036,-0.0002922,-0.2621045,-0.0116036,-0.0099071,-0.0269738
1.0425000,1.0425000,1.0425000,-0.0114322,-0.0002899,-0.2601739,-0.0114322,-0.0097649,-0.0265727
1.0450000,1.0450000,1.0450000,-0.0112637,-0.0002876,-0.2582623,-0.0112637,-0.0096251,-0.0261784
1.0475000,1.0475000,1.0475000,-0.0110981,-0.0002853,-0.2563696,-0.0110981,-0.0094877,-0.0257910
1.0500000,1.0500000,1.0500000,-0.0109353,-0.0002831,-0.2544954,-0.0109353,-0.0093526,-0.0254103
1.0525000,1.0525000,1.0525000,-0.0107754,-0.0002808,-0.2526395,-0.0107754,-0.0092198,-0.0250360
1.0550000,1.0550000,1.0550000,-0.0106181,-0.0002786,-0.2508018,-0.0106181,-0.0090892,-0.0246682
1.0575000,1.0575000,1.0575000,-0.0104636,-0.0002765,-0.2489820,-0.0104636,-0.0089608,-0.0243067
1.0600000,1.0600000,1.0600000,-0.0103117,-0.0002743,-0.2471798,-0.0103117,-0.0088346,-0.0239513
1.0625000,1.0625000,1.0625000,-0.0101623,-0.0002722,-0.2453952,-0.0101623,-0.0087105,-0.0236020
1.0650000,1.0650000,1.0650000,-0.0100155,-0.0002700,-0.2436277,-0.0100155,-0.0085884,-0.0232586
1.0675000,1.0675000,1.0675000,-0.0098712,-0.0002680,-0.2418773,-0.0098712,-0.0084684,-0.0229211
1.0700000,1.0700000,1.0700000,-0.0097293,-0.0002659,-0.2401437,-0.0097293,-0.0083504,-0.0225892
1.0725000,1.0725000,1.0725000,-0.0095897,-0.0002638,-0.2384268,-0.0095897,-0.0082343,-0.0222629
1.0750000,1.0750000,1.0750000,-0.0094526,-0.0002618,-0.2367263,-0.0094526,-0.0081202,-0.0219421
1.0775000,1.0775000,1.0775000,-0.0093177,-0.0002598,-0.2350420,-0.0093177,-0.0080079,-0.0216266
1.0800000,1.0800000,1.0800000,-0.0091850,-0.0002578,-0.2333738,-0.0091850,-0.0078975,-0.0213165
1.0825000,1.0825000,1.0825000,-0.0090546,-0.0002558,-0.2317214,-0.0090546,-0.0077888,-0.0210115
1.0850000,1.0850000,1.0850000,-0.0089263,-0.0002539,-0.2300847,-0.0089263,-0.0076820,-0.0207116
1.0875000,1.0875000,1.0875000,-0.0088002,-0.0002519,-0.2284634,-0.0088002,-0.0075769,-0.0204167
1.0900000,1.0900000,1.0900000,-0.0086761,-0.0002500,-0.2268574,-0.0086761,-0.0074735,-0.0201266
1.0925000,1.0925000,1.0925000,-0.0085541,-0.0002481,-0.2252666,-0.0085541,-0.0073718,-0.0198414
1.0950000,1.0950000,1.0950000,-0.0084341,-0.0002463,-0.2236906,-0.0084341,-0.0072717,-0.0195608
1.0975000,1.0975000,1.0975000,-0.0083160,-0.0002444,-0.2221294,-0.0083160,-0.0071732,-0.0192849
1.1000000,1.1000000,1.1000000,-0.0081999,-0.0002426,-0.2205828,-0.0081999,-0.0070763,-0.0190134
1.1025000,1.1025000,1.1025000,-0.0080857,-0.0002407,-0.2190506,-0.0080857,-0.0069810,-0.0187465
1.1050000,1.1050000,1.1050000,-0.0079733,-0.0002389,-0.2175327,-0.0079733,-0.0068872,-0.0184838
1.1075000,1.1075000,1.1075000,-0.0078628,-0.0002372,-0.2160288,-0.0078628,-0.0067949,-0.0182255
1.1100000,1.1100000,1.1100000,-0.0077540,-0.0002354,-0.2145388,-0.0077540,-0.0067041,-0.0179714
1.1125000,1.1125000,1.1125000,-0.0076470,-0.0002336,-0.2130626,-0.0076470,-0.0066147,-0.0177213
1.1150000,1.1150000,1.1150000,-0.0075418,-0.0002319,-0.2116000,-0.0075418,-0.0065267,-0.0174754
1.1175000,1.1175000,1.1175000,-0.0074382,-0.0002302,-0.2101508,-0.0074382,-0.0064401,-0.0172333
1.1200000,1.1200000,1.1200000,-0.0073363,-0.0002285,-0.2087149,-0.0073363,-0.0063549,-0.0169952
1.1225000,1.1225000,1.1225000,-0.0072360,-0.0002268,-0.2072921,-0.0072360,-0.0062711,-0.0167609
1.1250000,1.1250000,1.1250000,-0.0071373,-0.0002251,-0.2058823,-0.0071373,-0.0061885,-0.0165304
1.1275000,1.1275000,1.1275000,-0.0070402,-0.0002235,-0.2044853,-0.0070402,-0.0061072,-0.0163036
1.1300000,1.1300000,1.1300000,-0.0069446,-0.0002219,-0.2031010,-0.0069446,-0.0060273,-0.0160803
1.1325000,1.1325000,1.1325000,-0.0068506,-0.0002202,-0.2017292,-0.0068506,-0.0059485,-0.0158606
1.1350000,1.1350000,1.1350000,-0.0067580,-0.0002186,-0.2003699,-0.0067580,-0.0058710,-0.0156444
1.1375000,1.1375000,1.1375000,-0.0066669,-0.0002171,-0.1990227,-0.0066669,-0.0057947,-0.0154317
1.1400000,1.1400000,1.1400000,-0.0065773,-0.0002155,-0.1976877,-0.0065773,-0.0057195,-0.0152223
1.1425000,1.1425000,1.1425000,-0.0064890,-0.0002139,-0.1963647,-0.0064890,-0.0056456,-0.0150162
1.1450000,1.1450000,1.1450000,-0.0064021,-0.0002124,-0.1950535,-0.0064021,-0.0055727,-0.0148133
1.1475000,1.1475000,1.1475000,-0.0063166,-0.0002109,-0.1937541,-0.0063166,-0.0055010,-0.0146136
1.1500000,1.1500000,1.1500000,-0.0062325,-0.0002093,-0.1924662,-0.0062325,-0.0054304,-0.0144171
1.1525000,1.1525000,1.1525000,-0.0061496,-0.0002078,-0.1911897,-0.0061496,-0.0053608,-0.0142236
1.1550000,1.1550000,1.1550000,-0.0060680,-0.0002064,-0.1899246,-0.0060680,-0.0052924,-0.0140331
1.1575000,1.1575000,1.1575000,-0.0059877,-0.0002049,-0.1886707,-0.0059877,-0.0052249,-0.0138456
1.1600000,1.1600000,1.1600000,-0.0059086,-0.0002034,-0.1874278,-0.0059086,-0.0051585,-0.0136610
1.1625000,1.1625000,1.1625000,-0.0058308,-0.0002020,-0.1861959,-0.0058308,-0.0050931,-0.0134793
1.1650000,1.1650000,1.1650000,-0.0057541,-0.0002006,-0.1849749,-0.0057541,-0.0050287,-0.0133004
1.1675000,1.1675000,1.1675000,-0.0056786,-0.0001991,-0.1837645,-0.0056786,-0.0049652,-0.0131242
1.1700000,1.1700000,1.1700000,-0.0056043,-0.0001977,-0.1825647,-0.0056043,-0.0049027,-0.0129508
1.1725000,1.1725000,1.1725000,-0.0055311,-0.0001963,-0.1813755,-0.0055311,-0.0048412,-0.0127800
1.1750000,1.1750000,1.1750000,-0.0054590,-0.0001950,-0.1801965,-0.0054590,-0.0047806,-0.0126118
1.1775000,1.1775000,1.1775000,-0.0053881,-0.0001936,-0.1790278,-0.0053881,-0.0047208,-0.0124462
1.1800000,1.1800000,1.1800000,-0.0053182,-0.0001922,-0.1778693,-0.0053182,-0.0046620,-0.0122831
1.1825000,1.1825000,1.1825000,-0.0052493,-0.0001909,-0.1767208,-0.0052493,-0.0046040,-0.0121225
1.1850000,1.1850000,1.1850000,-0.0051815,-0.0001896,-0.1755822,-0.0051815,-0.0045469,-0.0119644
1.1875000,1.1875000,1.1875000,-0.0051148,-0.0001883,-0.1744534,-0.0051148,-0.0044907,-0.0118086
1.1900000,1.1900000,1.1900000,-0.0050490,-0.0001870,-0.1733343,-0.0050490,-0.0044352,-0.0116552
1.1925000,1.1925000,1.1925000,-0.0049842,-0.0001857,-0.1722248,-0.0049842,-0.0043806,-0.0115041
1.1950000,1.1950000,1.1950000,-0.0049204,-0.0001844,-0.1711248,-0.0049204,-0.0043268,-0.0113553
1.1975000,1.1975000,1.1975000,-0.0048576,-0.0001831,-0.1700342,-0.0048576,-0.0042738,-0.0112087
1.2000000,1.2000000,1.2000000,-0.0047956,-0.0001819,-0.1689529,-0.0047956,-0.0042215,-0.0110643
1.2025000,1.2025000,1.2025000,-0.0047347,-0.0001806,-0.1678808,-0.0047347,-0.0041700,-0.0109221
1.2050000,1.2050000,1.2050000,-0.0046746,-0.0001794,-0.1668178,-0.0046746,-0.0041193,-0.0107819
1.2075000,1.2075000,1.2075000,-0.0046154,-0.0001782,-0.1657637,-0.0046154,-0.0040693,-0.0106439
1.2100000,1.2100000,1.2100000,-0.0045570,-0.0001770,-0.1647186,-0.0045570,-0.0040200,-0.0105079
1.2125000,1.2125000,1.2125000,-0.0044996,-0.0001758,-0.1636823,-0.0044996,-0.0039715,-0.0103740
1.2150000,1.2150000,1.2150000,-0.0044430,-0.0001746,-0.1626547,-0.0044430,-0.0039236,-0.0102420
1.2175000,1.2175000,1.2175000,-0.0043872,-0.0001734,-0.1616358,-0.0043872,-0.0038764,-0.0101120
1.2200000,1.2200000,1.2200000,-0.0043322,-0.0001722,-0.1606254,-0.0043322,-0.0038299,-0.0099839
1.2225000,1.2225000,1.2225000,-0.0042781,-0.0001711,-0.1596234,-0.0042781,-0.0037841,-0.0098577
1.2250000,1.2250000,1.2250000,-0.0042247,-0.0001699,-0.1586297,-0.0042247,-0.0037389,-0.0097333
1.2275000,1.2275000,1.2275000,-0.0041721,-0.0001688,-0.1576444,-0.0041721,-0.0036944,-0.0096107
1.2300000,1.2300000,1.2300000,-0.0041203,-0.0001677,-0.1566672,-0.0041203,-0.0036505,-0.0094900
1.2325000,1.2325000,1.2325000,-0.0040692,-0.0001665,-0.1556981,-0.0040692,-0.0036072,-0.0093710
1.2350000,1.2350000,1.2350000,-0.0040189,-0.0001654,-0.1547371,-0.0040189,-0.0035646,-0.0092537
1.2375000,1.2375000,1.2375000,-0.0039693,-0.0001643,-0.1537839,-0.0039693,-0.0035225,-0.0091381
1.2400000,1.2400000,1.2400000,-0.0039204,-0.0001632,-0.1528386,-0.0039204,-0.0034811,-0.0090242
1.2425000,1.2425000,1.2425000,-0.0038722,-0.0001622,-0.1519011,-0.0038722,-0.0034402,-0.0089120
1.2450000,1.2450000,1.2450000,-0.0038247,-0.0001611,-0.1509713,-0.0038247,-0.0033999,-0.0088013
1.2475000,1.2475000,1.2475000,-0.0037779,-0.0001600,-0.1500491,-0.0037779,-0.0033601,-0.0086923
1.2500000,1.2500000,1.2500000,-0.0037317,-0.0001590,-0.1491344,-0.0037317,-0.0033209,-0.0085848
1.2525000,1.2525000,1.2525000,-0.0036862,-0.0001579,-0.1482271,-0.0036862,-0.0032823,-0.0084789
1.2550000,1.2550000,1.2550000,-0.0036414,-0.0001569,-0.1473273,-0.0036414,-0.0032442,-0.0083745
1.2575000,1.2575000,1.2575000,-0.0035972,-0.0001559,-0.1464347,-0.0035972,-0.0032066,-0.0082716
1.2600000,1.2600000,1.2600000,-0.0035536,-0.0001549,-0.1455494,-0.0035536,-0.0031696,-0.0081701
1.2625000,1.2625000,1.2625000,-0.0035106,-0.0001539,-0.1446712,-0.0035106,-0.0031330,-0.0080701
1.2650000,1.2650000,1.2650000,-0.0034683,-0.0001529,-0.1438001,-0.0034683,-0.0030970,-0.0079715
1.2675000,1.2675000,1.2675000,-0.0034265,-0.0001519,-0.1429360,-0.0034265,-0.0030615,-0.0078743
1.2700000,1.2700000,1.2700000,-0.0033853,-0.0001509,-0.1420789,-0.0033853,-0.0030264,-0.0077785
1.2725000,1.2725000,1.2725000,-0.0033448,-0.0001499,-0.1412286,-0.0033448,-0.0029919,-0.0076840
1.2750000,1.2750000,1.2750000,-0.0033047,-0.0001490,-0.1403851,-0.0033047,-0.0029578,-0.0075909
1.2775000,1.2775000,1.2775000,-0.0032653,-0.0001480,-0.1395484,-0.0032653,-0.0029241,-0.0074990
1.2800000,1.2800000,1.2800000,-0.0032263,-0.0001471,-0.1387183,-0.0032263,-0.0028910,-0.0074085
1.2825000,1.2825000,1.2825000,-0.0031880,-0.0001461,-0.1378948,-0.0031880,-0.0028582,-0.0073192
1.2850000,1.2850000,1.2850000,-0.0031501,-0.0001452,-0.1370779,-0.0031501,-0.0028260,-0.0072312
1.2875000,1.2875000,1.2875000,-0.0031128,-0.0001443,-0.1362674,-0.0031128,-0.0027941,-0.0071444
1.2900000,1.2900000,1.2900000,-0.0030760,-0.0001434,-0.1354633,-0.0030760,-0.0027627,-0.0070588
1.2925000,1.2925000,1.2925000,-0.0030397,-0.0001425,-0.1346656,-0.0030397,-0.0027317,-0.0069744
1.2950000,1.2950000,1.2950000,-0.0030039,-0.0001416,-0.1338741,-0.0030039,-0.0027011,-0.0068911
1.2975000,1.2975000,1.2975000,-0.0029686,-0.0001407,-0.1330889,-0.0029686,-0.0026710,-0.0068090
1.3000000,1.3000000,1.3000000,-0.0029338,-0.0001398,-0.1323098,-0.0029338,-0.0026412,-0.0067281
1.3025000,1.3025000,1.3025000,-0.0028995,-0.0001389,-0.1315368,-0.0028995,-0.0026119,-0.0066482
1.3050000,1.3050000,1.3050000,-0.0028656,-0.0001380,-0.1307698,-0.0028656,-0.0025829,-0.0065695
1.3075000,1.3075000,1.3075000,-0.0028322,-0.0001372,-0.1300089,-0.0028322,-0.0025543,-0.0064918
1.3100000,1.3100000,1.3100000,-0.0027993,-0.0001363,-0.1292538,-0.0027993,-0.0025261,-0.0064152
1.3125000,1.3125000,1.3125000,-0.0027667,-0.0001355,-0.1285046,-0.0027667,-0.0024983,-0.0063397
1.3150000,1.3150000,1.3150000,-0.0027347,-0.0001346,-0.1277612,-0.0027347,-0.0024708,-0.0062652
1.3175000,1.3175000,1.3175000,-0.0027031,-0.0001338,-0.1270235,-0.0027031,-0.0024437,-0.0061917
1.3200000,1.3200000,1.3200000,-0.0026719,-0.0001330,-0.1262916,-0.0026719,-0.0024170,-0.0061192
1.3225000,1.3225000,1.3225000,-0.0026411,-0.0001322,-0.1255652,-0.0026411,-0.0023906,-0.0060476
1.3250000,1.3250000,1.3250000,-0.0026107,-0.0001313,-0.1248445,-0.0026107,-0.0023645,-0.0059771
1.3275000,1.3275000,1.3275000,-0.0025807,-0.0001305,-0.1241293,-0.0025807,-0.0023388,-0.0059075
1.3300000,1.3300000,1.3300000,-0.0025512,-0.0001297,-0.1234195,-0.0025512,-0.0023135,-0.0058388
1.3325000,1.3325000,1.3325000,-0.0025220,-0.0001289,-0.1227152,-0.0025220,-0.0022884,-0.0057711
1.3350000,1.3350000,1.3350000,-0.0024932,-0.0001282,-0.1220163,-0.0024932,-0.0022637,-0.0057042
1.3375000,1.3375000,1.3375000,-0.0024649,-0.0001274,-0.1213226,-0.0024649,-0.0022393,-0.0056383
1.3400000,1.3400000,1.3400000,-0.0024368,-0.0001266,-0.1206343,-0.0024368,-0.0022152,-0.0055732
1.3425000,1.3425000,1.3425000,-0.0024092,-0.0001258,-0.1199511,-0.0024092,-0.0021915,-0.0055091
1.3450000,1.3450000,1.3450000,-0.0023819,-0.0001251,-0.1192731,-0.0023819,-0.0021680,-0.0054457
1.3475000,1.3475000,1.3475000,-0.0023550,-0.0001243,-0.1186003,-0.0023550,-0.0021448,-0.0053832
1.3500000,1.3500000,1.3500000,-0.0023285,-0.0001236,-0.1179325,-0.0023285,-0.0021220,-0.0053216
1.3525000,1.3525000,1.3525000,-0.0023022,-0.0001228,-0.1172697,-0.0023022,-0.0020994,-0.0052607
1.3550000,1.3550000,1.3550000,-0.0022764,-0.0001221,-0.1166120,-0.0022764,-0.0020771,-0.0052007
1.3575000,1.3575000,1.3575000,-0.0022509,-0.0001214,-0.1159591,-0.0022509,-0.0020551,-0.0051415
1.3600000,1.3600000,1.3600000,-0.0022257,-0.0001206,-0.1153111,-0.0022257,-0.0020334,-0.0050830
1.3625000,1.3625000,1.3625000,-0.0022008,-0.0001199,-0.1146680,-0.0022008,-0.0020120,-0.0050253
1.3650000,1.3650000,1.3650000,-0.0021763,-0.0001192,-0.1140296,-0.0021763,-0.0019908,-0.0049684
1.3675000,1.3675000,1.3675000,-0.0021520,-0.0001185,-0.1133960,-0.0021520,-0.0019699,-0.0049122
1.3700000,1.3700000,1.3700000,-0.0021281,-0.0001178,-0.1127671,-0.0021281,-0.0019493,-0.0048567
1.3725000,1.3725000,1.3725000,-0.0021045,-0.0001171,-0.1121429,-0.0021045,-0.0019289,-0.0048020
1.3750000,1.3750000,1.3750000,-0.0020813,-0.0001164,-0.1115233,-0.0020813,-0.0019088,-0.0047480
1.3775000,1.3775000,1.3775000,-0.0020583,-0.0001157,-0.1109082,-0.0020583,-0.0018889,-0.0046947
1.3800000,1.3800000,1.3800000,-0.0020356,-0.0001150,-0.1102977,-0.0020356,-0.0018693,-0.0046421
1.3825000,1.3825000,1.3825000,-0.0020132,-0.0001144,-0.1096917,-0.0020132,-0.0018499,-0.0045901
1.3850000,1.3850000,1.3850000,-0.0019911,-0.0001137,-0.1090901,-0.0019911,-0.0018308,-0.0045389
1.3875000,1.3875000,1.3875000,-0.0019692,-0.0001130,-0.1084929,-0.0019692,-0.0018119,-0.0044883
1.3900000,1.3900000,1.3900000,-0.0019477,-0.0001124,-0.1079001,-0.0019477,-0.0017933,-0.0044383
1.3925000,1.3925000,1.3925000,-0.0019264,-0.0001117,-0.1073117,-0.0019264,-0.0017748,-0.0043890
1.3950000,1.3950000,1.3950000,-0.0019054,-0.0001111,-0.1067275,-0.0019054,-0.0017566,-0.0043403
1.3975000,1.3975000,1.3975000,-0.0018847,-0.0001104,-0.1061475,-0.0018847,-0.0017387,-0.0042923
1.4000000,1.4000000,1.4000000,-0.0018642,-0.0001098,-0.1055718,-0.0018642,-0.0017209,-0.0042448
1.4025000,1.4025000,1.4025000,-0.0018440,-0.0001091,-0.1050002,-0.0018440,-0.0017034,-0.0041980
1.4050000,1.4050000,1.4050000,-0.0018240,-0.0001085,-0.1044328,-0.0018240,-0.0016861,-0.0041518
1.4075000,1.4075000,1.4075000,-0.0018043,-0.0001079,-0.1038695,-0.0018043,-0.0016690,-0.0041061
1.4100000,1.4100000,1.4100000,-0.0017849,-0.0001073,-0.1033102,-0.0017849,-0.0016521,-0.0040610
1.4125000,1.4125000,1.4125000,-0.0017657,-0.0001067,-0.1027549,-0.0017657,-0.0016354,-0.0040165
1.4150000,1.4150000,1.4150000,-0.0017467,-0.0001060,-0.1022037,-0.0017467,-0.0016189,-0.0039726
1.4175000,1.4175000,1.4175000,-0.0017280,-0.0001054,-0.1016564,-0.0017280,-0.0016026,-0.0039292
1.4200000,1.4200000,1.4200000,-0.0017095,-0.0001048,-0.1011130,-0.0017095,-0.0015865,-0.0038864
1.4225000,1.4225000,1.4225000,-0.0016912,-0.0001042,-0.1005734,-0.0016912,-0.0015706,-0.0038441
1.4250000,1.4250000,1.4250000,-0.0016732,-0.0001036,-0.1000378,-0.0016732,-0.0015549,-0.0038024
1.4275000,1.4275000,1.4275000,-0.0016554,-0.0001031,-0.0995059,-0.0016554,-0.0015394,-0.0037611
1.4300000,1.4300000,1.4300000,-0.0016378,-0.0001025,-0.0989778,-0.0016378,-0.0015241,-0.0037204
1.4325000,1.4325000,1.4325000,-0.0016204,-0.0001019,-0.0984534,-0.0016204,-0.0015090,-0.0036802
1.4350000,1.4350000,1.4350000,-0.0016032,-0.0001013,-0.0979328,-0.0016032,-0.0014940,-0.0036405
1.4375000,1.4375000,1.4375000,-0.0015863,-0.0001008,-0.0974158,-0.0015863,-0.0014792,-0.0036013
1.4400000,1.4400000,1.4400000,-0.0015696,-0.0001002,-0.0969025,-0.0015696,-0.0014646,-0.0035626
1.4425000,1.4425000,1.4425000,-0.0015530,-0.0000996,-0.0963928,-0.0015530,-0.0014502,-0.0035243
1.4450000,1.4450000,1.4450000,-0.0015367,-0.0000991,-0.0958867,-0.0015367,-0.0014359,-0.0034865
1.4475000,1.4475000,1.4475000,-0.0015206,-0.0000985,-0.0953841,-0.0015206,-0.0014218,-0.0034492
1.4500000,1.4500000,1.4500000,-0.0015046,-0.0000980,-0.0948851,-0.0015046,-0.0014079,-0.0034124
1.4525000,1.4525000,1.4525000,-0.0014889,-0.0000974,-0.0943895,-0.0014889,-0.0013942,-0.0033760
1.4550000,1.4550000,1.4550000,-0.0014734,-0.0000969,-0.0938974,-0.0014734,-0.0013806,-0.0033401
1.4575000,1.4575000,1.4575000,-0.0014580,-0.0000963,-0.0934087,-0.0014580,-0.0013671,-0.0033046
1.4600000,1.4600000,1.4600000,-0.0014428,-0.0000958,-0.0929234,-0.0014428,-0.0013539,-0.0032695
1.4625000,1.4625000,1.4625000,-0.0014279,-0.0000953,-0.0924415,-0.0014279,-0.0013408,-0.0032349
1.4650000,1.4650000,1.4650000,-0.0014131,-0.0000948,-0.0919629,-0.0014131,-0.0013278,-0.0032007
1.4675000,1.4675000,1.4675000,-0.0013984,-0.0000942,-0.0914876,-0.0013984,-0.0013150,-0.0031669
1.4700000,1.4700000,1.4700000,-0.0013840,-0.0000937,-0.0910156,-0.0013840,-0.0013023,-0.0031335
1.4725000,1.4725000,1.4725000,-0.0013697,-0.0000932,-0.0905469,-0.0013697,-0.0012898,-0.0031005
1.4750000,1.4750000,1.4750000,-0.0013556,-0.0000927,-0.0900814,-0.0013556,-0.0012774,-0.0030679
1.4775000,1.4775000,1.4775000,-0.0013417,-0.0000922,-0.0896190,-0.0013417,-0.0012652,-0.0030358
1.4800000,1.4800000,1.4800000,-0.0013279,-0.0000917,-0.0891599,-0.0013279,-0.0012531,-0.0030040
1.4825000,1.4825000,1.4825000,-0.0013143,-0.0000912,-0.0887039,-0.0013143,-0.0012412,-0.0029726
1.4850000,1.4850000,1.4850000,-0.0013009,-0.0000907,-0.0882510,-0.0013009,-0.0012294,-0.0029415
1.4875000,1.4875000,1.4875000,-0.0012876,-0.0000902,-0.0878012,-0.0012876,-0.0012177,-0.0029109
1.4900000,1.4900000,1.4900000,-0.0012745,-0.0000897,-0.0873544,-0.0012745,-0.0012062,-0.0028806
1.4925000,1.4925000,1.4925000,-0.0012615,-0.0000892,-0.0869107,-0.0012615,-0.0011948,-0.0028507
1.4950000,1.4950000,1.4950000,-0.0012487,-0.0000888,-0.0864700,-0.0012487,-0.0011835,-0.0028211
1.4975000,1.4975000,1.4975000,-0.0012361,-0.0000883,-0.0860323,-0.0012361,-0.0011723,-0.0027919
1.5000000,1.5000000,1.5000000,-0.0012236,-0.0000878,-0.0855975,-0.0012236,-0.0011613,-0.0027630
1.5025000,1.5025000,1.5025000,-0.0012112,-0.0000873,-0.0851657,-0.0012112,-0.0011504,-0.0027345
1.5050000,1.5050000,1.5050000,-0.0011990,-0.0000869,-0.0847367,-0.0011990,-0.0011397,-0.0027063
1.5075000,1.5075000,1.5075000,-0.0011869,-0.0000864,-0.0843107,-0.0011869,-0.0011290,-0.0026785
1.5100000,1.5100000,1.5100000,-0.0011750,-0.0000859,-0.0838875,-0.0011750,-0.0011185,-0.0026510
1.5125000,1.5125000,1.5125000,-0.0011632,-0.0000855,-0.0834672,-0.0011632,-0.0011081,-0.0026238
1.5150000,1.5150000,1.5150000,-0.0011516,-0.0000850,-0.0830496,-0.0011516,-0.0010978,-0.0025969
1.5175000,1.5175000,1.5175000,-0.0011401,-0.0000846,-0.0826349,-0.0011401,-0.0010876,-0.0025704
1.5200000,1.5200000,1.5200000,-0.0011287,-0.0000841,-0.0822229,-0.0011287,-0.0010776,-0.0025441
1.5225000,1.5225000,1.5225000,-0.0011174,-0.0000837,-0.0818137,-0.0011174,-0.0010676,-0.0025182
1.5250000,1.5250000,1.5250000,-0.0011063,-0.0000833,-0.0814072,-0.0011063,-0.0010578,-0.0024926
1.5275000,1.5275000,1.5275000,-0.0010953,-0.0000828,-0.0810034,-0.0010953,-0.0010481,-0.0024672
1.5300000,1.5300000,1.5300000,-0.0010845,-0.0000824,-0.0806022,-0.0010845,-0.0010384,-0.0024422
1.5325000,1.5325000,1.5325000,-0.0010737,-0.0000819,-0.0802037,-0.0010737,-0.0010289,-0.0024175
1.5350000,1.5350000,1.5350000,-0.0010631,-0.0000815,-0.0798079,-0.0010631,-0.0010195,-0.0023930
1.5375000,1.5375000,1.5375000,-0.0010527,-0.0000811,-0.0794146,-0.0010527,-0.0010102,-0.0023689
1.5400000,1.5400000,1.5400000,-0.0010423,-0.0000807,-0.0790240,-0.0010423,-0.0010010,-0.0023450
1.5425000,1.5425000,1.5425000,-0.0010320,-0.0000803,-0.0786359,-0.0010320,-0.0009919,-0.0023214
1.5450000,1.5450000,1.5450000,-0.0010219,-0.0000798,-0.0782503,-0.0010219,-0.0009830,-0.0022980
1.5475000,1.5475000,1.5475000,-0.0010119,-0.0000794,-0.0778673,-0.0010119,-0.0009741,-0.0022750
1.5500000,1.5500000,1.5500000,-0.0010020,-0.0000790,-0.0774867,-0.0010020,-0.0009653,-0.0022522
1.5525000,1.5525000,1.5525000,-0.0009922,-0.0000786,-0.0771087,-0.0009922,-0.0009566,-0.0022297
1.5550000,1.5550000,1.5550000,-0.0009825,-0.0000782,-0.0767331,-0.0009825,-0.0009480,-0.0022074
1.5575000,1.5575000,1.5575000,-0.0009730,-0.0000778,-0.0763600,-0.0009730,-0.0009394,-0.0021854
1.5600000,1.5600000,1.5600000,-0.0009635,-0.0000774,-0.0759893,-0.0009635,-0.0009310,-0.0021636
1.5625000,1.5625000,1.5625000,-0.0009542,-0.0000770,-0.0756209,-0.0009542,-0.0009227,-0.0021421
1.5650000,1.5650000,1.5650000,-0.0009449,-0.0000766,-0.0752550,-0.0009449,-0.0009145,-0.0021208
1.5675000,1.5675000,1.5675000,-0.0009358,-0.0000762,-0.0748914,-0.0009358,-0.0009063,-0.0020998
1.5700000,1.5700000,1.5700000,-0.0009268,-0.0000758,-0.0745302,-0.0009268,-0.0008983,-0.0020790
1.5725000,1.5725000,1.5725000,-0.0009178,-0.0000754,-0.0741713,-0.0009178,-0.0008903,-0.0020585
1.5750000,1.5750000,1.5750000,-0.0009090,-0.0000751,-0.0738147,-0.0009090,-0.0008824,-0.0020381
1.5775000,1.5775000,1.5775000,-0.0009003,-0.0000747,-0.0734604,-0.0009003,-0.0008746,-0.0020181
1.5800000,1.5800000,1.5800000,-0.0008916,-0.0000743,-0.0731084,-0.0008916,-0.0008669,-0.0019982
1.5825000,1.5825000,1.5825000,-0.0008831,-0.0000739,-0.0727586,-0.0008831,-0.0008593,-0.0019786
1.5850000,1.5850000,1.5850000,-0.0008746,-0.0000735,-0.0724111,-0.0008746,-0.0008517,-0.0019592
1.5875000,1.5875000,1.5875000,-0.0008663,-0.0000732,-0.0720657,-0.0008663,-0.0008443,-0.0019400
1.5900000,1.5900000,1.5900000,-0.0008580,-0.0000728,-0.0717226,-0.0008580,-0.0008369,-0.0019210
1.5925000,1.5925000,1.5925000,-0.0008499,-0.0000724,-0.0713817,-0.0008499,-0.0008296,-0.0019022
1.5950000,1.5950000,1.5950000,-0.0008418,-0.0000721,-0.0710429,-0.0008418,-0.0008223,-0.0018837
1.5975000,1.5975000,1.5975000,-0.0008338,-0.0000717,-0.0707062,-0.0008338,-0.0008152,-0.0018653
