# r[nm],d[nm],daligned[nm],U(d)[kj/mol],V(d)[e/nm],Uslab(d)[kJ/mol],UC(d)[kJ/mol],UK(d)[kJ/mol],UCl(d)[kJ/mol]
0.1800000,0.1800000,0.1800000,1708.2547871,-0.1902625,529.0875588,1708.2547871,1078.8133022,inf
0.1825000,0.1825000,0.1825000,1501.8759456,-0.1938103,453.6974503,1501.8759456,947.4232078,inf
0.1850000,0.1850000,0.1850000,1321.9976792,-0.1952793,389.8448814,1321.9976792,832.9854418,inf
0.1875000,0.1875000,0.1875000,1164.8916775,-0.1952230,335.6290452,1164.8916775,733.1582464,inf
0.1900000,0.1900000,0.1900000,1027.4837670,-0.1949951,289.4830331,1027.4837670,645.9757002,inf
0.1925000,0.1925000,0.1925000,907.2059680,-0.1954306,250.1019768,907.2059680,569.7636140,inf
0.1950000,0.1950000,0.1950000,801.8481754,-0.1965679,216.3827575,801.8481754,503.0795320,inf
0.1975000,0.1975000,0.1975000,709.4813667,-0.1981410,187.3931211,709.4813667,444.6749388,inf
0.2000000,0.2000000,0.2000000,628.4229976,-0.1998963,162.3724720,628.4229976,393.4688454,inf
0.2025000,0.2025000,0.2025000,557.2114039,-0.2016644,140.6682028,557.2114039,348.5260948,inf
0.2050000,0.2050000,0.2050000,494.5803237,-0.2033451,121.4018689,494.5803237,309.0381654,inf
0.2075000,0.2075000,0.2075000,439.4340056,-0.2048833,103.6705312,439.4340056,274.3060444,inf
0.2100000,0.2100000,0.2100000,390.8242485,-0.2062506,87.7329135,390.8242485,243.7251188,1659.0521369
0.2125000,0.2125000,0.2125000,347.9300038,-0.2074343,73.9816106,347.9300038,216.7720089,1479.7305580
0.2150000,0.2150000,0.2150000,310.0396163,-0.2084304,62.2966546,310.0396163,192.9931895,1320.9775687
0.2175000,0.2175000,0.2175000,276.5355236,-0.2092401,52.3934140,276.5355236,171.9951971,1180.2792980
0.2200000,0.2200000,0.2200000,246.8811372,-0.2098675,43.9924709,246.8811372,153.4361923,1055.4501185
0.2225000,0.2225000,0.2225000,220.6096148,-0.2103183,36.8537229,220.6096148,137.0186023,944.5869022
0.2250000,0.2250000,0.2250000,197.3142455,-0.2105995,30.7766904,197.3142455,122.4824911,846.0300515
0.2275000,0.2275000,0.2275000,176.6401746,-0.2107179,25.5947128,176.6401746,109.5992008,758.3302451
0.2300000,0.2300000,0.2300000,158.2771627,-0.2106752,21.1690464,158.2771627,98.1648533,680.2200106
0.2325000,0.2325000,0.2325000,141.9529799,-0.2104400,17.3839047,141.9529799,87.9938624,610.5893844
0.2350000,0.2350000,0.2350000,127.4268959,-0.2098639,14.1424284,127.4268959,78.9139708,548.4650366
0.2375000,0.2375000,0.2375000,114.4827907,-0.2085015,11.3634135,114.4827907,70.7658973,492.9923404
0.2400000,0.2400000,0.2400000,102.9221398,-0.2053716,8.9786383,102.9221398,63.4099890,443.4199481
0.2425000,0.2425000,0.2425000,92.5589318,-0.1988882,6.9306696,92.5589318,56.7367035,399.0865036
0.2450000,0.2450000,0.2450000,83.2205710,-0.1873898,5.1710550,83.2205710,50.6713552,359.4091769
0.2475000,0.2475000,0.2475000,74.7574665,-0.1703837,3.6588276,74.7574665,45.1668724,323.8737454
0.2500000,0.2500000,0.2500000,67.0559514,-0.1495125,2.3592645,67.0559514,40.1897573,292.0259545
0.2525000,0.2525000,0.2525000,60.0417485,-0.1278958,1.2428531,60.0417485,35.7087740,263.4638368
0.2550000,0.2550000,0.2550000,53.6684809,-0.1083510,0.2844281,53.6684809,31.6901460,237.8305132
0.2575000,0.2575000,0.2575000,47.9006233,-0.0922996,-0.5375504,47.9006233,28.0973957,214.8067180
0.2600000,0.2600000,0.2600000,42.7021444,-0.0798991,-1.2415979,42.7021444,24.8929347,194.1021902
0.2625000,0.2625000,0.2625000,38.0330808,-0.0706566,-1.8436992,38.0330808,22.0397294,175.4460968
0.2650000,0.2650000,0.2650000,33.8505807,-0.0639075,-2.3577034,33.8505807,19.5024828,158.5801626
0.2675000,0.2675000,0.2675000,30.1111076,-0.0590442,-2.7956313,30.1111076,17.2483034,143.2629081
0.2700000,0.2700000,0.2700000,26.7722967,-0.0555841,-3.1679132,26.7722967,15.2469920,129.2900571
0.2725000,0.2725000,0.2725000,23.7941323,-0.0531668,-3.4835821,23.7941323,13.4710810,116.5162863
0.2750000,0.2750000,0.2750000,21.1395500,-0.0515307,-3.7504471,21.1395500,11.8957331,104.8519704
0.2775000,0.2775000,0.2775000,18.7746497,-0.0504877,-3.9752582,18.7746497,10.4985722,94.2356244
0.2800000,0.2800000,0.2800000,16.6686722,-0.0499021,-4.1638680,16.6686722,9.2594925,84.6084140
0.2825000,0.2825000,0.2825000,14.7938444,-0.0496754,-4.3213844,14.7938444,8.1604711,75.9045595
0.2850000,0.2850000,0.2850000,13.1251605,-0.0497356,-4.4523065,13.1251605,7.1853971,68.0525609
0.2875000,0.2875000,0.2875000,11.6401438,-0.0500285,-4.5606272,11.6401438,6.3199161,60.9793699
0.2900000,0.2900000,0.2900000,10.3186136,-0.0505124,-4.6498926,10.3186136,5.5512906,54.6138479
0.2925000,0.2925000,0.2925000,9.1424710,-0.0511540,-4.7232165,9.1424710,4.8682679,48.8888293
0.2950000,0.2950000,0.2950000,8.0955090,-0.0519251,-4.7832696,8.0955090,4.2609544,43.7420962
0.2975000,0.2975000,0.2975000,7.1632445,-0.0528001,-4.8322683,7.1632445,3.7206896,39.1166765
0.3000000,0.3000000,0.3000000,6.3327699,-0.0537556,-4.8719895,6.3327699,3.2399207,34.9607685
0.3025000,0.3025000,0.3025000,5.5926182,-0.0547685,-4.9038225,5.5926182,2.8120754,31.2274741
0.3050000,0.3050000,0.3050000,4.9326378,-0.0558168,-4.9288484,4.9326378,2.4314349,27.8744469
0.3075000,0.3075000,0.3075000,4.3438739,-0.0568793,-4.9479268,4.3438739,2.0930093,24.8635116
0.3100000,0.3100000,0.3100000,3.8184532,-0.0579360,-4.9617721,3.8184532,1.7924182,22.1602834
0.3125000,0.3125000,0.3125000,3.3494704,-0.0589685,-4.9710103,3.3494704,1.5257793,19.7338028
0.3150000,0.3150000,0.3150000,2.9308759,-0.0599601,-4.9762188,2.9308759,1.2896096,17.5561937
0.3175000,0.3175000,0.3175000,2.5573654,-0.0608963,-4.9779533,2.5573654,1.0807403,15.6023477
0.3200000,0.3200000,0.3200000,2.2242725,-0.0617643,-4.9767617,2.2242725,0.8962493,13.8496378
0.3225000,0.3225000,0.3225000,1.9274670,-0.0625532,-4.9731821,1.9274670,0.7334133,12.2776628
0.3250000,0.3250000,0.3250000,1.6632611,-0.0632545,-4.9677252,1.6632611,0.5896807,10.8680209
0.3275000,0.3275000,0.3275000,1.4283261,-0.0638620,-4.9608426,1.4283261,0.4626642,9.6041128
0.3300000,0.3300000,0.3300000,1.2196234,-0.0643726,-4.9528894,1.2196234,0.3501493,8.4709695
0.3325000,0.3325000,0.3325000,1.0343497,-0.0647869,-4.9440933,1.0343497,0.2501133,7.4551031
0.3350000,0.3350000,0.3350000,0.8699004,-0.0651095,-4.9345392,0.8699004,0.1607464,6.5443746
0.3375000,0.3375000,0.3375000,0.7238501,-0.0653489,-4.9241781,0.7238501,0.0804695,5.7278771
0.3400000,0.3400000,0.3400000,0.5939491,-0.0655172,-4.9128575,0.5939491,0.0079418,4.9958298
0.3425000,0.3425000,0.3425000,0.4781318,-0.0656298,-4.9003666,0.4781318,-0.0579437,4.3394807
0.3450000,0.3450000,0.3450000,0.3745305,-0.0657039,-4.8864873,0.3745305,-0.1180776,3.7510164
0.3475000,0.3475000,0.3475000,0.2814890,-0.0657571,-4.8710364,0.2814890,-0.1731620,3.2234750
0.3500000,0.3500000,0.3500000,0.1975700,-0.0658053,-4.8538953,0.1975700,-0.2237463,2.7506630
0.3525000,0.3525000,0.3525000,0.1215528,-0.0658612,-4.8350198,0.1215528,-0.2702669,2.3270728
0.3550000,0.3550000,0.3550000,0.0524202,-0.0659323,-4.8144344,0.0524202,-0.3130867,1.9478022
0.3575000,0.3575000,0.3575000,-0.0106639,-0.0660194,-4.7922137,-0.0106639,-0.3525325,1.6084761
0.3600000,0.3600000,0.3600000,-0.0683849,-0.0661169,-4.7684594,-0.0683849,-0.3889239,1.3051723
0.3625000,0.3625000,0.3625000,-0.1213118,-0.0662122,-4.7432770,-0.1213118,-0.4225914,1.0343519
0.3650000,0.3650000,0.3650000,-0.1699331,-0.0662876,-4.7167572,-0.1699331,-0.4538809,0.7927985
0.3675000,0.3675000,0.3675000,-0.2146895,-0.0663209,-4.6889638,-0.2146895,-0.4831454,0.5775667
0.3700000,0.3700000,0.3700000,-0.2560000,-0.0662884,-4.6599281,-0.2560000,-0.5107280,0.3859419
0.3725000,0.3725000,0.3725000,-0.2942785,-0.0661671,-4.6296524,-0.2942785,-0.5369434,0.2154144
0.3750000,0.3750000,0.3750000,-0.3299367,-0.0659370,-4.5981188,-0.3299367,-0.5620643,0.0636648
0.3775000,0.3775000,0.3775000,-0.3633778,-0.0655838,-4.5653037,-0.3633778,-0.5863155,-0.0714392
0.3800000,0.3800000,0.3800000,-0.3949822,-0.0651004,-4.5311924,-0.3949822,-0.6098758,-0.1918398
0.3825000,0.3825000,0.3825000,-0.4250925,-0.0644871,-4.4957911,-0.4250925,-0.6328825,-0.2992842
0.3850000,0.3850000,0.3850000,-0.4540033,-0.0637516,-4.4591342,-0.4540033,-0.6554352,-0.3953214
0.3875000,0.3875000,0.3875000,-0.4819568,-0.0629067,-4.4212851,-0.4819568,-0.6775968,-0.4813057
0.3900000,0.3900000,0.3900000,-0.5091454,-0.0619693,-4.3823333,-0.5091454,-0.6993939,-0.5584068
0.3925000,0.3925000,0.3925000,-0.5357160,-0.0609577,-4.3423897,-0.5357160,-0.7208176,-0.6276284
0.3950000,0.3950000,0.3950000,-0.5617738,-0.0598903,-4.3015809,-0.5617738,-0.7418266,-0.6898333
0.3975000,0.3975000,0.3975000,-0.5873855,-0.0587840,-4.2600428,-0.5873855,-0.7623514,-0.7457722
0.4000000,0.4000000,0.4000000,-0.6125816,-0.0576521,-4.2179136,-0.6125816,-0.7822970,-0.7961134
0.4025000,0.4025000,0.4025000,-0.6373593,-0.0565037,-4.1753258,-0.6373593,-0.8015433,-0.8414698
0.4050000,0.4050000,0.4050000,-0.6616875,-0.0553431,-4.1323984,-0.6616875,-0.8199473,-0.8824182
0.4075000,0.4075000,0.4075000,-0.6855095,-0.0541702,-4.0892308,-0.6855095,-0.8373451,-0.9195111
0.4100000,0.4100000,0.4100000,-0.7087453,-0.0529821,-4.0458984,-0.7087453,-0.8535606,-0.9532781
0.4125000,0.4125000,0.4125000,-0.7312911,-0.0517751,-4.0024525,-0.7312911,-0.8684180,-0.9842224
0.4150000,0.4150000,0.4150000,-0.7530193,-0.0505461,-3.9589216,-0.7530193,-0.8817587,-1.0128131
0.4175000,0.4175000,0.4175000,-0.7737801,-0.0492947,-3.9153152,-0.7737801,-0.8934581,-1.0394776
0.4200000,0.4200000,0.4200000,-0.7934074,-0.0480230,-3.8716282,-0.7934074,-0.9034386,-1.0645967
0.4225000,0.4225000,0.4225000,-0.8117301,-0.0467360,-3.8278456,-0.8117301,-0.9116765,-1.0885014
0.4250000,0.4250000,0.4250000,-0.8285872,-0.0454401,-3.7839469,-0.8285872,-0.9181997,-1.1114709
0.4275000,0.4275000,0.4275000,-0.8438434,-0.0441422,-3.7399097,-0.8438434,-0.9230779,-1.1337306
0.4300000,0.4300000,0.4300000,-0.8574041,-0.0428484,-3.6957138,-0.8574041,-0.9264087,-1.1554519
0.4325000,0.4325000,0.4325000,-0.8692232,-0.0415630,-3.6513432,-0.8692232,-0.9283015,-1.1767512
0.4350000,0.4350000,0.4350000,-0.8793051,-0.0402880,-3.6067890,-0.8793051,-0.9288652,-1.1976930
0.4375000,0.4375000,0.4375000,-0.8876979,-0.0390236,-3.5620503,-0.8876979,-0.9281998,-1.2182932
0.4400000,0.4400000,0.4400000,-0.8944823,-0.0377687,-3.5171353,-0.8944823,-0.9263950,-1.2385244
0.4425000,0.4425000,0.4425000,-0.8997568,-0.0365216,-3.4720611,-0.8997568,-0.9235322,-1.2583217
0.4450000,0.4450000,0.4450000,-0.9036253,-0.0352815,-3.4268534,-0.9036253,-0.9196900,-1.2775875
0.4475000,0.4475000,0.4475000,-0.9061871,-0.0340483,-3.3815454,-0.9061871,-0.9149497,-1.2961960
0.4500000,0.4500000,0.4500000,-0.9075328,-0.0328231,-3.3361766,-0.9075328,-0.9093977,-1.3139990
0.4525000,0.4525000,0.4525000,-0.9077448,-0.0316083,-3.2907914,-0.9077448,-0.9031256,-1.3308317
0.4550000,0.4550000,0.4550000,-0.9069005,-0.0304062,-3.2454377,-0.9069005,-0.8962266,-1.3465214
0.4575000,0.4575000,0.4575000,-0.9050774,-0.0292193,-3.2001653,-0.9050774,-0.8887891,-1.3608976
0.4600000,0.4600000,0.4600000,-0.9023568,-0.0280489,-3.1550248,-0.9023568,-0.8808907,-1.3738041
0.4625000,0.4625000,0.4625000,-0.8988244,-0.0268954,-3.1100664,-0.8988244,-0.8725925,-1.3851102
0.4650000,0.4650000,0.4650000,-0.8945688,-0.0257578,-3.0653390,-0.8945688,-0.8639360,-1.3947210
0.4675000,0.4675000,0.4675000,-0.8896763,-0.0246347,-3.0208893,-0.8896763,-0.8549438,-1.4025830
0.4700000,0.4700000,0.4700000,-0.8842252,-0.0235248,-2.9767614,-0.8842252,-0.8456228,-1.4086854
0.4725000,0.4725000,0.4725000,-0.8782797,-0.0224278,-2.9329963,-0.8782797,-0.8359699,-1.4130563
0.4750000,0.4750000,0.4750000,-0.8718860,-0.0213448,-2.8896314,-0.8718860,-0.8259787,-1.4157551
0.4775000,0.4775000,0.4775000,-0.8650711,-0.0202783,-2.8467009,-0.8650711,-0.8156452,-1.4168631
0.4800000,0.4800000,0.4800000,-0.8578453,-0.0192327,-2.8042354,-0.8578453,-0.8049723,-1.4164737
0.4825000,0.4825000,0.4825000,-0.8502072,-0.0182127,-2.7622617,-0.8502072,-0.7939711,-1.4146844
0.4850000,0.4850000,0.4850000,-0.8421496,-0.0172234,-2.7208034,-0.8421496,-0.7826604,-1.4115918
0.4875000,0.4875000,0.4875000,-0.8336659,-0.0162694,-2.6798809,-0.8336659,-0.7710644,-1.4072894
0.4900000,0.4900000,0.4900000,-0.8247550,-0.0153540,-2.6395111,-0.8247550,-0.7592105,-1.4018681
0.4925000,0.4925000,0.4925000,-0.8154232,-0.0144795,-2.5997084,-0.8154232,-0.7471262,-1.3954172
0.4950000,0.4950000,0.4950000,-0.8056845,-0.0136473,-2.5604844,-0.8056845,-0.7348381,-1.3880260
0.4975000,0.4975000,0.4975000,-0.7955591,-0.0128582,-2.5218479,-0.7955591,-0.7223710,-1.3797839
0.5000000,0.5000000,0.5000000,-0.7850710,-0.0121123,-2.4838059,-0.7850710,-0.7097482,-1.3707790
0.5025000,0.5025000,0.5025000,-0.7742453,-0.0114100,-2.4463630,-0.7742453,-0.6969916,-1.3610948
0.5050000,0.5050000,0.5050000,-0.7631072,-0.0107514,-2.4095220,-0.7631072,-0.6841224,-1.3508063
0.5075000,0.5075000,0.5075000,-0.7516809,-0.0101369,-2.3732841,-0.7516809,-0.6711621,-1.3399760
0.5100000,0.5100000,0.5100000,-0.7399895,-0.0095667,-2.3376490,-0.7399895,-0.6581326,-1.3286512
0.5125000,0.5125000,0.5125000,-0.7280556,-0.0090408,-2.3026149,-0.7280556,-0.6450563,-1.3168638
0.5150000,0.5150000,0.5150000,-0.7159017,-0.0085590,-2.2681792,-0.7159017,-0.6319562,-1.3046318
0.5175000,0.5175000,0.5175000,-0.7035511,-0.0081206,-2.2343377,-0.7035511,-0.6188560,-1.2919628
0.5200000,0.5200000,0.5200000,-0.6910279,-0.0077246,-2.2010859,-0.6910279,-0.6057790,-1.2788584
0.5225000,0.5225000,0.5225000,-0.6783576,-0.0073695,-2.1684181,-0.6783576,-0.5927488,-1.2653188
0.5250000,0.5250000,0.5250000,-0.6655670,-0.0070534,-2.1363280,-0.6655670,-0.5797879,-1.2513460
0.5275000,0.5275000,0.5275000,-0.6526837,-0.0067742,-2.1048090,-0.6526837,-0.5669182,-1.2369456
0.5300000,0.5300000,0.5300000,-0.6397359,-0.0065293,-2.0738535,-0.6397359,-0.5541601,-1.2221273
0.5325000,0.5325000,0.5325000,-0.6267519,-0.0063162,-2.0434540,-0.6267519,-0.5415326,-1.2069049
0.5350000,0.5350000,0.5350000,-0.6137599,-0.0061321,-2.0136023,-0.6137599,-0.5290532,-1.1912949
0.5375000,0.5375000,0.5375000,-0.6007872,-0.0059744,-1.9842901,-0.6007872,-0.5167375,-1.1753154
0.5400000,0.5400000,0.5400000,-0.5878599,-0.0058403,-1.9555088,-0.5878599,-0.5045995,-1.1589861
0.5425000,0.5425000,0.5425000,-0.5750029,-0.0057274,-1.9272498,-0.5750029,-0.4926514,-1.1423271
0.5450000,0.5450000,0.5450000,-0.5622391,-0.0056331,-1.8995040,-0.5622391,-0.4809037,-1.1253596
0.5475000,0.5475000,0.5475000,-0.5495897,-0.0055552,-1.8722625,-0.5495897,-0.4693653,-1.1081058
0.5500000,0.5500000,0.5500000,-0.5370740,-0.0054916,-1.8455164,-0.5370740,-0.4580433,-1.0905894
0.5525000,0.5525000,0.5525000,-0.5247092,-0.0054402,-1.8192566,-0.5247092,-0.4469436,-1.0728356
0.5550000,0.5550000,0.5550000,-0.5125107,-0.0053993,-1.7934740,-0.5125107,-0.4360709,-1.0548718
0.5575000,0.5575000,0.5575000,-0.5004917,-0.0053673,-1.7681596,-0.5004917,-0.4254282,-1.0367272
0.5600000,0.5600000,0.5600000,-0.4886638,-0.0053429,-1.7433045,-0.4886638,-0.4150179,-1.0184325
0.5625000,0.5625000,0.5625000,-0.4770366,-0.0053247,-1.7188998,-0.4770366,-0.4048411,-1.0000201
0.5650000,0.5650000,0.5650000,-0.4656183,-0.0053115,-1.6949365,-0.4656183,-0.3948981,-0.9815232
0.5675000,0.5675000,0.5675000,-0.4544154,-0.0053025,-1.6714060,-0.4544154,-0.3851885,-0.9629753
0.5700000,0.5700000,0.5700000,-0.4434330,-0.0052968,-1.6482997,-0.4434330,-0.3757110,-0.9444102
0.5725000,0.5725000,0.5725000,-0.4326751,-0.0052936,-1.6256089,-0.4326751,-0.3664638,-0.9258610
0.5750000,0.5750000,0.5750000,-0.4221444,-0.0052922,-1.6033254,-0.4221444,-0.3574448,-0.9073596
0.5775000,0.5775000,0.5775000,-0.4118427,-0.0052922,-1.5814408,-0.4118427,-0.3486511,-0.8889368
0.5800000,0.5800000,0.5800000,-0.4017706,-0.0052930,-1.5599469,-0.4017706,-0.3400796,-0.8706218
0.5825000,0.5825000,0.5825000,-0.3919283,-0.0052942,-1.5388358,-0.3919283,-0.3317269,-0.8524417
0.5850000,0.5850000,0.5850000,-0.3823149,-0.0052955,-1.5180996,-0.3823149,-0.3235893,-0.8344217
0.5875000,0.5875000,0.5875000,-0.3729292,-0.0052967,-1.4977306,-0.3729292,-0.3156629,-0.8165845
0.5900000,0.5900000,0.5900000,-0.3637691,-0.0052974,-1.4777211,-0.3637691,-0.3079435,-0.7989510
0.5925000,0.5925000,0.5925000,-0.3548325,-0.0052976,-1.4580637,-0.3548325,-0.3004269,-0.7815396
0.5950000,0.5950000,0.5950000,-0.3461163,-0.0052969,-1.4387512,-0.3461163,-0.2931088,-0.7643668
0.5975000,0.5975000,0.5975000,-0.3376177,-0.0052954,-1.4197763,-0.3376177,-0.2859848,-0.7474467
0.6000000,0.6000000,0.6000000,-0.3293331,-0.0052929,-1.4011321,-0.3293331,-0.2790503,-0.7307917
0.6025000,0.6025000,0.6025000,-0.3212589,-0.0052894,-1.3828117,-0.3212589,-0.2723010,-0.7144120
0.6050000,0.6050000,0.6050000,-0.3133913,-0.0052847,-1.3648083,-0.3133913,-0.2657323,-0.6983163
0.6075000,0.6075000,0.6075000,-0.3057263,-0.0052789,-1.3471155,-0.3057263,-0.2593398,-0.6825114
0.6100000,0.6100000,0.6100000,-0.2982599,-0.0052719,-1.3297267,-0.2982599,-0.2531189,-0.6670030
0.6125000,0.6125000,0.6125000,-0.2909877,-0.0052638,-1.3126357,-0.2909877,-0.2470652,-0.6517950
0.6150000,0.6150000,0.6150000,-0.2839056,-0.0052545,-1.2958363,-0.2839056,-0.2411745,-0.6368903
0.6175000,0.6175000,0.6175000,-0.2770091,-0.0052440,-1.2793225,-0.2770091,-0.2354423,-0.6222905
0.6200000,0.6200000,0.6200000,-0.2702942,-0.0052324,-1.2630884,-0.2702942,-0.2298644,-0.6079964
0.6225000,0.6225000,0.6225000,-0.2637562,-0.0052197,-1.2471282,-0.2637562,-0.2244366,-0.5940077
0.6250000,0.6250000,0.6250000,-0.2573911,-0.0052059,-1.2314364,-0.2573911,-0.2191548,-0.5803233
0.6275000,0.6275000,0.6275000,-0.2511944,-0.0051911,-1.2160073,-0.2511944,-0.2140151,-0.5669416
0.6300000,0.6300000,0.6300000,-0.2451620,-0.0051752,-1.2008357,-0.2451620,-0.2090134,-0.5538602
0.6325000,0.6325000,0.6325000,-0.2392895,-0.0051584,-1.1859162,-0.2392895,-0.2041459,-0.5410762
0.6350000,0.6350000,0.6350000,-0.2335729,-0.0051406,-1.1712438,-0.2335729,-0.1994088,-0.5285862
0.6375000,0.6375000,0.6375000,-0.2280081,-0.0051219,-1.1568134,-0.2280081,-0.1947984,-0.5163864
0.6400000,0.6400000,0.6400000,-0.2225910,-0.0051023,-1.1426202,-0.2225910,-0.1903112,-0.5044727
0.6425000,0.6425000,0.6425000,-0.2173176,-0.0050819,-1.1286592,-0.2173176,-0.1859436,-0.4928406
0.6450000,0.6450000,0.6450000,-0.2121841,-0.0050608,-1.1149259,-0.2121841,-0.1816923,-0.4814857
0.6475000,0.6475000,0.6475000,-0.2071868,-0.0050389,-1.1014156,-0.2071868,-0.1775538,-0.4704029
0.6500000,0.6500000,0.6500000,-0.2023217,-0.0050163,-1.0881240,-0.2023217,-0.1735251,-0.4595872
0.6525000,0.6525000,0.6525000,-0.1975854,-0.0049931,-1.0750466,-0.1975854,-0.1696028,-0.4490336
0.6550000,0.6550000,0.6550000,-0.1929743,-0.0049692,-1.0621791,-0.1929743,-0.1657840,-0.4387369
0.6575000,0.6575000,0.6575000,-0.1884848,-0.0049448,-1.0495174,-0.1884848,-0.1620657,-0.4286916
0.6600000,0.6600000,0.6600000,-0.1841136,-0.0049198,-1.0370575,-0.1841136,-0.1584450,-0.4188924
0.6625000,0.6625000,0.6625000,-0.1798574,-0.0048943,-1.0247952,-0.1798574,-0.1549190,-0.4093341
0.6650000,0.6650000,0.6650000,-0.1757129,-0.0048684,-1.0127268,-0.1757129,-0.1514851,-0.4000113
0.6675000,0.6675000,0.6675000,-0.1716771,-0.0048420,-1.0008485,-0.1716771,-0.1481406,-0.3909185
0.6700000,0.6700000,0.6700000,-0.1677468,-0.0048152,-0.9891565,-0.1677468,-0.1448829,-0.3820505
0.6725000,0.6725000,0.6725000,-0.1639191,-0.0047881,-0.9776471,-0.1639191,-0.1417095,-0.3734020
0.6750000,0.6750000,0.6750000,-0.1601911,-0.0047606,-0.9663169,-0.1601911,-0.1386180,-0.3649677
0.6775000,0.6775000,0.6775000,-0.1565600,-0.0047328,-0.9551624,-0.1565600,-0.1356061,-0.3567426
0.6800000,0.6800000,0.6800000,-0.1530230,-0.0047047,-0.9441802,-0.1530230,-0.1326715,-0.3487214
0.6825000,0.6825000,0.6825000,-0.1495775,-0.0046764,-0.9333670,-0.1495775,-0.1298119,-0.3408993
0.6850000,0.6850000,0.6850000,-0.1462209,-0.0046478,-0.9227195,-0.1462209,-0.1270252,-0.3332711
0.6875000,0.6875000,0.6875000,-0.1429507,-0.0046190,-0.9122346,-0.1429507,-0.1243093,-0.3258321
0.6900000,0.6900000,0.6900000,-0.1397645,-0.0045901,-0.9019092,-0.1397645,-0.1216623,-0.3185774
0.6925000,0.6925000,0.6925000,-0.1366598,-0.0045609,-0.8917402,-0.1366598,-0.1190820,-0.3115025
0.6950000,0.6950000,0.6950000,-0.1336344,-0.0045317,-0.8817247,-0.1336344,-0.1165668,-0.3046026
0.6975000,0.6975000,0.6975000,-0.1306860,-0.0045023,-0.8718599,-0.1306860,-0.1141146,-0.2978734
0.7000000,0.7000000,0.7000000,-0.1278125,-0.0044728,-0.8621428,-0.1278125,-0.1117237,-0.2913104
0.7025000,0.7025000,0.7025000,-0.1250118,-0.0044432,-0.8525707,-0.1250118,-0.1093924,-0.2849092
0.7050000,0.7050000,0.7050000,-0.1222818,-0.0044136,-0.8431410,-0.1222818,-0.1071191,-0.2786658
0.7075000,0.7075000,0.7075000,-0.1196206,-0.0043839,-0.8338510,-0.1196206,-0.1049020,-0.2725760
0.7100000,0.7100000,0.7100000,-0.1170261,-0.0043542,-0.8246980,-0.1170261,-0.1027396,-0.2666357
0.7125000,0.7125000,0.7125000,-0.1144967,-0.0043245,-0.8156796,-0.1144967,-0.1006304,-0.2608411
0.7150000,0.7150000,0.7150000,-0.1120303,-0.0042948,-0.8067933,-0.1120303,-0.0985728,-0.2551884
0.7175000,0.7175000,0.7175000,-0.1096254,-0.0042651,-0.7980367,-0.1096254,-0.0965655,-0.2496738
0.7200000,0.7200000,0.7200000,-0.1072801,-0.0042354,-0.7894074,-0.1072801,-0.0946071,-0.2442937
0.7225000,0.7225000,0.7225000,-0.1049928,-0.0042057,-0.7809030,-0.1049928,-0.0926961,-0.2390445
0.7250000,0.7250000,0.7250000,-0.1027619,-0.0041761,-0.7725214,-0.1027619,-0.0908314,-0.2339228
0.7275000,0.7275000,0.7275000,-0.1005859,-0.0041466,-0.7642603,-0.1005859,-0.0890115,-0.2289253
0.7300000,0.7300000,0.7300000,-0.0984633,-0.0041171,-0.7561176,-0.0984633,-0.0872354,-0.2240487
0.7325000,0.7325000,0.7325000,-0.0963925,-0.0040877,-0.7480911,-0.0963925,-0.0855017,-0.2192897
0.7350000,0.7350000,0.7350000,-0.0943722,-0.0040583,-0.7401787,-0.0943722,-0.0838093,-0.2146454
0.7375000,0.7375000,0.7375000,-0.0924009,-0.0040291,-0.7323785,-0.0924009,-0.0821571,-0.2101126
0.7400000,0.7400000,0.7400000,-0.0904774,-0.0040000,-0.7246883,-0.0904774,-0.0805441,-0.2056885
0.7425000,0.7425000,0.7425000,-0.0886003,-0.0039709,-0.7171064,-0.0886003,-0.0789690,-0.2013701
0.7450000,0.7450000,0.7450000,-0.0867683,-0.0039420,-0.7096307,-0.0867683,-0.0774310,-0.1971548
0.7475000,0.7475000,0.7475000,-0.0849803,-0.0039132,-0.7022594,-0.0849803,-0.0759290,-0.1930398
0.7500000,0.7500000,0.7500000,-0.0832351,-0.0038846,-0.6949907,-0.0832351,-0.0744621,-0.1890224
0.7525000,0.7525000,0.7525000,-0.0815314,-0.0038561,-0.6878228,-0.0815314,-0.0730293,-0.1851002
0.7550000,0.7550000,0.7550000,-0.0798683,-0.0038277,-0.6807540,-0.0798683,-0.0716296,-0.1812705
0.7575000,0.7575000,0.7575000,-0.0782445,-0.0037994,-0.6737825,-0.0782445,-0.0702623,-0.1775311
0.7600000,0.7600000,0.7600000,-0.0766591,-0.0037713,-0.6669066,-0.0766591,-0.0689265,-0.1738796
0.7625000,0.7625000,0.7625000,-0.0751110,-0.0037434,-0.6601247,-0.0751110,-0.0676213,-0.1703136
0.7650000,0.7650000,0.7650000,-0.0735992,-0.0037156,-0.6534352,-0.0735992,-0.0663459,-0.1668309
0.7675000,0.7675000,0.7675000,-0.0721228,-0.0036880,-0.6468366,-0.0721228,-0.0650996,-0.1634294
0.7700000,0.7700000,0.7700000,-0.0706809,-0.0036605,-0.6403272,-0.0706809,-0.0638815,-0.1601070
0.7725000,0.7725000,0.7725000,-0.0692724,-0.0036332,-0.6339056,-0.0692724,-0.0626910,-0.1568616
0.7750000,0.7750000,0.7750000,-0.0678966,-0.0036061,-0.6275702,-0.0678966,-0.0615273,-0.1536913
0.7775000,0.7775000,0.7775000,-0.0665525,-0.0035791,-0.6213197,-0.0665525,-0.0603897,-0.1505940
0.7800000,0.7800000,0.7800000,-0.0652394,-0.0035523,-0.6151525,-0.0652394,-0.0592775,-0.1475680
0.7825000,0.7825000,0.7825000,-0.0639564,-0.0035257,-0.6090674,-0.0639564,-0.0581902,-0.1446114
0.7850000,0.7850000,0.7850000,-0.0627028,-0.0034993,-0.6030629,-0.0627028,-0.0571270,-0.1417224
0.7875000,0.7875000,0.7875000,-0.0614778,-0.0034730,-0.5971377,-0.0614778,-0.0560874,-0.1388993
0.7900000,0.7900000,0.7900000,-0.0602806,-0.0034469,-0.5912905,-0.0602806,-0.0550707,-0.1361403
0.7925000,0.7925000,0.7925000,-0.0591106,-0.0034210,-0.5855200,-0.0591106,-0.0540763,-0.1334440
0.7950000,0.7950000,0.7950000,-0.0579670,-0.0033953,-0.5798249,-0.0579670,-0.0531037,-0.1308087
0.7975000,0.7975000,0.7975000,-0.0568491,-0.0033698,-0.5742040,-0.0568491,-0.0521524,-0.1282328
0.8000000,0.8000000,0.8000000,-0.0557564,-0.0033445,-0.5686561,-0.0557564,-0.0512217,-0.1257148
0.8025000,0.8025000,0.8025000,-0.0546881,-0.0033193,-0.5631800,-0.0546881,-0.0503112,-0.1232533
0.8050000,0.8050000,0.8050000,-0.0536436,-0.0032944,-0.5577745,-0.0536436,-0.0494204,-0.1208469
0.8075000,0.8075000,0.8075000,-0.0526224,-0.0032696,-0.5524385,-0.0526224,-0.0485488,-0.1184941
0.8100000,0.8100000,0.8100000,-0.0516238,-0.0032450,-0.5471709,-0.0516238,-0.0476958,-0.1161937
0.8125000,0.8125000,0.8125000,-0.0506473,-0.0032206,-0.5419706,-0.0506473,-0.0468611,-0.1139443
0.8150000,0.8150000,0.8150000,-0.0496923,-0.0031964,-0.5368364,-0.0496923,-0.0460442,-0.1117446
0.8175000,0.8175000,0.8175000,-0.0487583,-0.0031723,-0.5317674,-0.0487583,-0.0452446,-0.1095935
0.8200000,0.8200000,0.8200000,-0.0478448,-0.0031485,-0.5267625,-0.0478448,-0.0444620,-0.1074897
0.8225000,0.8225000,0.8225000,-0.0469512,-0.0031249,-0.5218207,-0.0469512,-0.0436958,-0.1054320
0.8250000,0.8250000,0.8250000,-0.0460770,-0.0031014,-0.5169410,-0.0460770,-0.0429458,-0.1034193
0.8275000,0.8275000,0.8275000,-0.0452218,-0.0030781,-0.5121223,-0.0452218,-0.0422114,-0.1014505
0.8300000,0.8300000,0.8300000,-0.0443851,-0.0030550,-0.5073639,-0.0443851,-0.0414924,-0.0995245
0.8325000,0.8325000,0.8325000,-0.0435665,-0.0030321,-0.5026646,-0.0435665,-0.0407883,-0.0976403
0.8350000,0.8350000,0.8350000,-0.0427654,-0.0030094,-0.4980236,-0.0427654,-0.0400988,-0.0957969
0.8375000,0.8375000,0.8375000,-0.0419815,-0.0029869,-0.4934400,-0.0419815,-0.0394236,-0.0939932
0.8400000,0.8400000,0.8400000,-0.0412144,-0.0029646,-0.4889129,-0.0412144,-0.0387623,-0.0922283
0.8425000,0.8425000,0.8425000,-0.0404636,-0.0029424,-0.4844414,-0.0404636,-0.0381145,-0.0905013
0.8450000,0.8450000,0.8450000,-0.0397288,-0.0029204,-0.4800246,-0.0397288,-0.0374800,-0.0888112
0.8475000,0.8475000,0.8475000,-0.0390095,-0.0028986,-0.4756618,-0.0390095,-0.0368584,-0.0871571
0.8500000,0.8500000,0.8500000,-0.0383054,-0.0028770,-0.4713520,-0.0383054,-0.0362494,-0.0855382
0.8525000,0.8525000,0.8525000,-0.0376161,-0.0028556,-0.4670946,-0.0376161,-0.0356527,-0.0839537
0.8550000,0.8550000,0.8550000,-0.0369413,-0.0028343,-0.4628886,-0.0369413,-0.0350681,-0.0824026
0.8575000,0.8575000,0.8575000,-0.0362806,-0.0028133,-0.4587333,-0.0362806,-0.0344953,-0.0808843
0.8600000,0.8600000,0.8600000,-0.0356337,-0.0027924,-0.4546280,-0.0356337,-0.0339339,-0.0793979
0.8625000,0.8625000,0.8625000,-0.0350002,-0.0027717,-0.4505718,-0.0350002,-0.0333837,-0.0779427
0.8650000,0.8650000,0.8650000,-0.0343799,-0.0027511,-0.4465641,-0.0343799,-0.0328445,-0.0765180
0.8675000,0.8675000,0.8675000,-0.0337724,-0.0027308,-0.4426041,-0.0337724,-0.0323159,-0.0751229
0.8700000,0.8700000,0.8700000,-0.0331774,-0.0027106,-0.4386911,-0.0331774,-0.0317978,-0.0737569
0.8725000,0.8725000,0.8725000,-0.0325946,-0.0026906,-0.4348244,-0.0325946,-0.0312900,-0.0724192
0.8750000,0.8750000,0.8750000,-0.0320238,-0.0026707,-0.4310034,-0.0320238,-0.0307920,-0.0711092
0.8775000,0.8775000,0.8775000,-0.0314647,-0.0026510,-0.4272273,-0.0314647,-0.0303039,-0.0698262
0.8800000,0.8800000,0.8800000,-0.0309169,-0.0026315,-0.4234954,-0.0309169,-0.0298252,-0.0685697
0.8825000,0.8825000,0.8825000,-0.0303802,-0.0026122,-0.4198072,-0.0303802,-0.0293559,-0.0673389
0.8850000,0.8850000,0.8850000,-0.0298545,-0.0025930,-0.4161620,-0.0298545,-0.0288957,-0.0661333
0.8875000,0.8875000,0.8875000,-0.0293393,-0.0025740,-0.4125592,-0.0293393,-0.0284443,-0.0649523
0.8900000,0.8900000,0.8900000,-0.0288345,-0.0025552,-0.4089981,-0.0288345,-0.0280017,-0.0637953
0.8925000,0.8925000,0.8925000,-0.0283399,-0.0025365,-0.4054781,-0.0283399,-0.0275675,-0.0626618
0.8950000,0.8950000,0.8950000,-0.0278551,-0.0025180,-0.4019987,-0.0278551,-0.0271416,-0.0615513
0.8975000,0.8975000,0.8975000,-0.0273800,-0.0024997,-0.3985593,-0.0273800,-0.0267239,-0.0604632
0.9000000,0.9000000,0.9000000,-0.0269144,-0.0024815,-0.3951592,-0.0269144,-0.0263141,-0.0593970
0.9025000,0.9025000,0.9025000,-0.0264580,-0.0024634,-0.3917979,-0.0264580,-0.0259120,-0.0583523
0.9050000,0.9050000,0.9050000,-0.0260106,-0.0024456,-0.3884749,-0.0260106,-0.0255175,-0.0573284
0.9075000,0.9075000,0.9075000,-0.0255721,-0.0024279,-0.3851896,-0.0255721,-0.0251305,-0.0563250
0.9100000,0.9100000,0.9100000,-0.0251422,-0.0024103,-0.3819415,-0.0251422,-0.0247507,-0.0553416
0.9125000,0.9125000,0.9125000,-0.0247207,-0.0023929,-0.3787300,-0.0247207,-0.0243780,-0.0543777
0.9150000,0.9150000,0.9150000,-0.0243075,-0.0023756,-0.3755547,-0.0243075,-0.0240123,-0.0534330
0.9175000,0.9175000,0.9175000,-0.0239023,-0.0023585,-0.3724150,-0.0239023,-0.0236533,-0.0525069
0.9200000,0.9200000,0.9200000,-0.0235050,-0.0023416,-0.3693104,-0.0235050,-0.0233010,-0.0515991
0.9225000,0.9225000,0.9225000,-0.0231155,-0.0023248,-0.3662404,-0.0231155,-0.0229552,-0.0507091
0.9250000,0.9250000,0.9250000,-0.0227334,-0.0023081,-0.3632046,-0.0227334,-0.0226158,-0.0498366
0.9275000,0.9275000,0.9275000,-0.0223587,-0.0022916,-0.3602025,-0.0223587,-0.0222826,-0.0489811
0.9300000,0.9300000,0.9300000,-0.0219913,-0.0022752,-0.3572335,-0.0219913,-0.0219554,-0.0481424
0.9325000,0.9325000,0.9325000,-0.0216308,-0.0022590,-0.3542973,-0.0216308,-0.0216343,-0.0473199
0.9350000,0.9350000,0.9350000,-0.0212773,-0.0022429,-0.3513934,-0.0212773,-0.0213189,-0.0465134
0.9375000,0.9375000,0.9375000,-0.0209305,-0.0022269,-0.3485213,-0.0209305,-0.0210093,-0.0457226
0.9400000,0.9400000,0.9400000,-0.0205903,-0.0022111,-0.3456806,-0.0205903,-0.0207053,-0.0449470
0.9425000,0.9425000,0.9425000,-0.0202566,-0.0021955,-0.3428709,-0.0202566,-0.0204067,-0.0441863
0.9450000,0.9450000,0.9450000,-0.0199292,-0.0021799,-0.3400917,-0.0199292,-0.0201135,-0.0434403
0.9475000,0.9475000,0.9475000,-0.0196079,-0.0021646,-0.3373427,-0.0196079,-0.0198255,-0.0427085
0.9500000,0.9500000,0.9500000,-0.0192927,-0.0021493,-0.3346234,-0.0192927,-0.0195426,-0.0419908
0.9525000,0.9525000,0.9525000,-0.0189834,-0.0021342,-0.3319334,-0.0189834,-0.0192648,-0.0412867
0.9550000,0.9550000,0.9550000,-0.0186799,-0.0021192,-0.3292724,-0.0186799,-0.0189919,-0.0405960
0.9575000,0.9575000,0.9575000,-0.0183821,-0.0021043,-0.3266398,-0.0183821,-0.0187238,-0.0399184
0.9600000,0.9600000,0.9600000,-0.0180898,-0.0020896,-0.3240355,-0.0180898,-0.0184604,-0.0392537
0.9625000,0.9625000,0.9625000,-0.0178029,-0.0020750,-0.3214589,-0.0178029,-0.0182017,-0.0386015
0.9650000,0.9650000,0.9650000,-0.0175213,-0.0020605,-0.3189097,-0.0175213,-0.0179475,-0.0379615
0.9675000,0.9675000,0.9675000,-0.0172450,-0.0020461,-0.3163875,-0.0172450,-0.0176977,-0.0373336
0.9700000,0.9700000,0.9700000,-0.0169737,-0.0020319,-0.3138920,-0.0169737,-0.0174522,-0.0367175
0.9725000,0.9725000,0.9725000,-0.0167074,-0.0020178,-0.3114229,-0.0167074,-0.0172110,-0.0361128
0.9750000,0.9750000,0.9750000,-0.0164460,-0.0020038,-0.3089797,-0.0164460,-0.0169740,-0.0355194
0.9775000,0.9775000,0.9775000,-0.0161893,-0.0019900,-0.3065621,-0.0161893,-0.0167410,-0.0349371
0.9800000,0.9800000,0.9800000,-0.0159374,-0.0019762,-0.3041699,-0.0159374,-0.0165120,-0.0343656
0.9825000,0.9825000,0.9825000,-0.0156900,-0.0019626,-0.3018026,-0.0156900,-0.0162870,-0.0338046
0.9850000,0.9850000,0.9850000,-0.0154470,-0.0019491,-0.2994599,-0.0154470,-0.0160658,-0.0332540
0.9875000,0.9875000,0.9875000,-0.0152085,-0.0019357,-0.2971416,-0.0152085,-0.0158483,-0.0327136
0.9900000,0.9900000,0.9900000,-0.0149743,-0.0019225,-0.2948472,-0.0149743,-0.0156346,-0.0321830
0.9925000,0.9925000,0.9925000,-0.0147443,-0.0019093,-0.2925766,-0.0147443,-0.0154244,-0.0316622
0.9950000,0.9950000,0.9950000,-0.0145184,-0.0018963,-0.2903293,-0.0145184,-0.0152178,-0.0311509
0.9975000,0.9975000,0.9975000,-0.0142965,-0.0018833,-0.2881051,-0.0142965,-0.0150147,-0.0306489
1.0000000,1.0000000,1.0000000,-0.0140786,-0.0018705,-0.2859037,-0.0140786,-0.0148150,-0.0301561
1.0025000,1.0025000,1.0025000,-0.0138646,-0.0018578,-0.2837248,-0.0138646,-0.0146186,-0.0296722
1.0050000,1.0050000,1.0050000,-0.0136544,-0.0018452,-0.2815681,-0.0136544,-0.0144254,-0.0291971
1.0075000,1.0075000,1.0075000,-0.0134479,-0.0018327,-0.2794333,-0.0134479,-0.0142355,-0.0287305
1.0100000,1.0100000,1.0100000,-0.0132450,-0.0018203,-0.2773202,-0.0132450,-0.0140487,-0.0282724
1.0125000,1.0125000,1.0125000,-0.0130458,-0.0018081,-0.2752284,-0.0130458,-0.0138650,-0.0278225
1.0150000,1.0150000,1.0150000,-0.0128500,-0.0017959,-0.2731577,-0.0128500,-0.0136843,-0.0273807
1.0175000,1.0175000,1.0175000,-0.0126576,-0.0017838,-0.2711078,-0.0126576,-0.0135066,-0.0269467
1.0200000,1.0200000,1.0200000,-0.0124686,-0.0017718,-0.2690785,-0.0124686,-0.0133318,-0.0265206
1.0225000,1.0225000,1.0225000,-0.0122829,-0.0017600,-0.2670695,-0.0122829,-0.0131599,-0.0261020
1.0250000,1.0250000,1.0250000,-0.0121005,-0.0017482,-0.2650806,-0.0121005,-0.0129907,-0.0256908
1.0275000,1.0275000,1.0275000,-0.0119211,-0.0017366,-0.2631114,-0.0119211,-0.0128243,-0.0252870
1.0300000,1.0300000,1.0300000,-0.0117449,-0.0017250,-0.2611618,-0.0117449,-0.0126605,-0.0248902
1.0325000,1.0325000,1.0325000,-0.0115718,-0.0017135,-0.2592316,-0.0115718,-0.0124994,-0.0245005
1.0350000,1.0350000,1.0350000,-0.0114016,-0.0017022,-0.2573203,-0.0114016,-0.0123409,-0.0241177
1.0375000,1.0375000,1.0375000,-0.0112343,-0.0016909,-0.2554280,-0.0112343,-0.0121849,-0.0237415
1.0400000,1.0400000,1.0400000,-0.0110699,-0.0016797,-0.2535542,-0.0110699,-0.0120314,-0.0233720
1.0425000,1.0425000,1.0425000,-0.0109083,-0.0016686,-0.2516988,-0.0109083,-0.0118804,-0.0230089
1.0450000,1.0450000,1.0450000,-0.0107495,-0.0016576,-0.2498616,-0.0107495,-0.0117317,-0.0226522
1.0475000,1.0475000,1.0475000,-0.0105933,-0.0016467,-0.2480422,-0.0105933,-0.0115854,-0.0223016
1.0500000,1.0500000,1.0500000,-0.0104398,-0.0016359,-0.2462406,-0.0104398,-0.0114414,-0.0219572
1.0525000,1.0525000,1.0525000,-0.0102889,-0.0016252,-0.2444565,-0.0102889,-0.0112997,-0.0216187
1.0550000,1.0550000,1.0550000,-0.0101406,-0.0016146,-0.2426896,-0.0101406,-0.0111602,-0.0212861
1.0575000,1.0575000,1.0575000,-0.0099947,-0.0016041,-0.2409399,-0.0099947,-0.0110229,-0.0209592
1.0600000,1.0600000,1.0600000,-0.0098513,-0.0015936,-0.2392069,-0.0098513,-0.0108877,-0.0206379
1.0625000,1.0625000,1.0625000,-0.0097103,-0.0015833,-0.2374907,-0.0097103,-0.0107546,-0.0203222
1.0650000,1.0650000,1.0650000,-0.0095717,-0.0015730,-0.2357909,-0.0095717,-0.0106236,-0.0200118
1.0675000,1.0675000,1.0675000,-0.0094353,-0.0015628,-0.2341073,-0.0094353,-0.0104946,-0.0197068
1.0700000,1.0700000,1.0700000,-0.0093013,-0.0015527,-0.2324398,-0.0093013,-0.0103676,-0.0194070
1.0725000,1.0725000,1.0725000,-0.0091694,-0.0015427,-0.2307882,-0.0091694,-0.0102425,-0.0191123
1.0750000,1.0750000,1.0750000,-0.0090397,-0.0015327,-0.2291523,-0.0090397,-0.0101194,-0.0188225
1.0775000,1.0775000,1.0775000,-0.0089122,-0.0015229,-0.2275319,-0.0089122,-0.0099981,-0.0185377
1.0800000,1.0800000,1.0800000,-0.0087868,-0.0015131,-0.2259267,-0.0087868,-0.0098787,-0.0182577
1.0825000,1.0825000,1.0825000,-0.0086634,-0.0015034,-0.2243368,-0.0086634,-0.0097611,-0.0179825
1.0850000,1.0850000,1.0850000,-0.0085421,-0.0014938,-0.2227617,-0.0085421,-0.0096453,-0.0177119
1.0875000,1.0875000,1.0875000,-0.0084227,-0.0014843,-0.2212015,-0.0084227,-0.0095312,-0.0174458
1.0900000,1.0900000,1.0900000,-0.0083053,-0.0014748,-0.2196558,-0.0083053,-0.0094188,-0.0171842
1.0925000,1.0925000,1.0925000,-0.0081898,-0.0014655,-0.2181246,-0.0081898,-0.0093082,-0.0169269
1.0950000,1.0950000,1.0950000,-0.0080761,-0.0014562,-0.2166076,-0.0080761,-0.0091992,-0.0166740
1.0975000,1.0975000,1.0975000,-0.0079644,-0.0014469,-0.2151048,-0.0079644,-0.0090918,-0.0164252
1.1000000,1.1000000,1.1000000,-0.0078544,-0.0014378,-0.2136158,-0.0078544,-0.0089860,-0.0161806
1.1025000,1.1025000,1.1025000,-0.0077462,-0.0014287,-0.2121407,-0.0077462,-0.0088818,-0.0159401
1.1050000,1.1050000,1.1050000,-0.0076397,-0.0014197,-0.2106791,-0.0076397,-0.0087791,-0.0157035
1.1075000,1.1075000,1.1075000,-0.0075349,-0.0014108,-0.2092310,-0.0075349,-0.0086779,-0.0154709
1.1100000,1.1100000,1.1100000,-0.0074318,-0.0014019,-0.2077962,-0.0074318,-0.0085783,-0.0152421
1.1125000,1.1125000,1.1125000,-0.0073304,-0.0013931,-0.2063746,-0.0073304,-0.0084801,-0.0150170
1.1150000,1.1150000,1.1150000,-0.0072306,-0.0013844,-0.2049659,-0.0072306,-0.0083833,-0.0147956
1.1175000,1.1175000,1.1175000,-0.0071323,-0.0013758,-0.2035701,-0.0071323,-0.0082879,-0.0145779
1.1200000,1.1200000,1.1200000,-0.0070356,-0.0013672,-0.2021870,-0.0070356,-0.0081940,-0.0143637
1.1225000,1.1225000,1.1225000,-0.0069405,-0.0013587,-0.2008165,-0.0069405,-0.0081014,-0.0141531
1.1250000,1.1250000,1.1250000,-0.0068468,-0.0013503,-0.1994583,-0.0068468,-0.0080101,-0.0139458
1.1275000,1.1275000,1.1275000,-0.0067547,-0.0013419,-0.1981124,-0.0067547,-0.0079201,-0.0137419
1.1300000,1.1300000,1.1300000,-0.0066639,-0.0013336,-0.1967787,-0.0066639,-0.0078315,-0.0135414
1.1325000,1.1325000,1.1325000,-0.0065746,-0.0013254,-0.1954570,-0.0065746,-0.0077441,-0.0133440
1.1350000,1.1350000,1.1350000,-0.0064867,-0.0013172,-0.1941471,-0.0064867,-0.0076580,-0.0131499
1.1375000,1.1375000,1.1375000,-0.0064002,-0.0013091,-0.1928489,-0.0064002,-0.0075731,-0.0129589
1.1400000,1.1400000,1.1400000,-0.0063150,-0.0013011,-0.1915623,-0.0063150,-0.0074894,-0.0127709
1.1425000,1.1425000,1.1425000,-0.0062311,-0.0012931,-0.1902872,-0.0062311,-0.0074068,-0.0125860
1.1450000,1.1450000,1.1450000,-0.0061486,-0.0012852,-0.1890235,-0.0061486,-0.0073255,-0.0124041
1.1475000,1.1475000,1.1475000,-0.0060673,-0.0012774,-0.1877709,-0.0060673,-0.0072453,-0.0122250
1.1500000,1.1500000,1.1500000,-0.0059872,-0.0012696,-0.1865295,-0.0059872,-0.0071662,-0.0120488
1.1525000,1.1525000,1.1525000,-0.0059084,-0.0012619,-0.1852990,-0.0059084,-0.0070883,-0.0118754
1.1550000,1.1550000,1.1550000,-0.0058308,-0.0012542,-0.1840793,-0.0058308,-0.0070114,-0.0117048
1.1575000,1.1575000,1.1575000,-0.0057544,-0.0012466,-0.1828704,-0.0057544,-0.0069356,-0.0115369
1.1600000,1.1600000,1.1600000,-0.0056792,-0.0012390,-0.1816721,-0.0056792,-0.0068609,-0.0113716
1.1625000,1.1625000,1.1625000,-0.0056051,-0.0012316,-0.1804842,-0.0056051,-0.0067872,-0.0112089
1.1650000,1.1650000,1.1650000,-0.0055322,-0.0012241,-0.1793068,-0.0055322,-0.0067145,-0.0110488
1.1675000,1.1675000,1.1675000,-0.0054603,-0.0012168,-0.1781396,-0.0054603,-0.0066428,-0.0108913
1.1700000,1.1700000,1.1700000,-0.0053895,-0.0012095,-0.1769825,-0.0053895,-0.0065721,-0.0107362
1.1725000,1.1725000,1.1725000,-0.0053198,-0.0012022,-0.1758355,-0.0053198,-0.0065024,-0.0105835
1.1750000,1.1750000,1.1750000,-0.0052512,-0.0011950,-0.1746984,-0.0052512,-0.0064336,-0.0104332
1.1775000,1.1775000,1.1775000,-0.0051836,-0.0011879,-0.1735711,-0.0051836,-0.0063658,-0.0102853
1.1800000,1.1800000,1.1800000,-0.0051170,-0.0011808,-0.1724536,-0.0051170,-0.0062989,-0.0101397
1.1825000,1.1825000,1.1825000,-0.0050514,-0.0011738,-0.1713457,-0.0050514,-0.0062329,-0.0099963
1.1850000,1.1850000,1.1850000,-0.0049868,-0.0011668,-0.1702472,-0.0049868,-0.0061678,-0.0098552
1.1875000,1.1875000,1.1875000,-0.0049232,-0.0011599,-0.1691582,-0.0049232,-0.0061036,-0.0097162
1.1900000,1.1900000,1.1900000,-0.0048605,-0.0011530,-0.1680785,-0.0048605,-0.0060402,-0.0095795
1.1925000,1.1925000,1.1925000,-0.0047987,-0.0011462,-0.1670079,-0.0047987,-0.0059777,-0.0094448
1.1950000,1.1950000,1.1950000,-0.0047378,-0.0011394,-0.1659465,-0.0047378,-0.0059160,-0.0093122
1.1975000,1.1975000,1.1975000,-0.0046779,-0.0011327,-0.1648941,-0.0046779,-0.0058552,-0.0091816
1.2000000,1.2000000,1.2000000,-0.0046188,-0.0011261,-0.1638506,-0.0046188,-0.0057952,-0.0090530
1.2025000,1.2025000,1.2025000,-0.0045606,-0.0011195,-0.1628159,-0.0045606,-0.0057359,-0.0089264
1.2050000,1.2050000,1.2050000,-0.0045033,-0.0011129,-0.1617900,-0.0045033,-0.0056775,-0.0088018
1.2075000,1.2075000,1.2075000,-0.0044468,-0.0011064,-0.1607727,-0.0044468,-0.0056198,-0.0086790
1.2100000,1.2100000,1.2100000,-0.0043911,-0.0011000,-0.1597639,-0.0043911,-0.0055629,-0.0085582
1.2125000,1.2125000,1.2125000,-0.0043362,-0.0010935,-0.1587636,-0.0043362,-0.0055067,-0.0084391
1.2150000,1.2150000,1.2150000,-0.0042822,-0.0010872,-0.1577716,-0.0042822,-0.0054513,-0.0083219
1.2175000,1.2175000,1.2175000,-0.0042289,-0.0010809,-0.1567879,-0.0042289,-0.0053965,-0.0082064
1.2200000,1.2200000,1.2200000,-0.0041764,-0.0010746,-0.1558124,-0.0041764,-0.0053425,-0.0080927
1.2225000,1.2225000,1.2225000,-0.0041247,-0.0010684,-0.1548451,-0.0041247,-0.0052892,-0.0079807
1.2250000,1.2250000,1.2250000,-0.0040737,-0.0010622,-0.1538857,-0.0040737,-0.0052366,-0.0078704
1.2275000,1.2275000,1.2275000,-0.0040234,-0.0010561,-0.1529343,-0.0040234,-0.0051847,-0.0077618
1.2300000,1.2300000,1.2300000,-0.0039739,-0.0010500,-0.1519907,-0.0039739,-0.0051335,-0.0076548
1.2325000,1.2325000,1.2325000,-0.0039251,-0.0010440,-0.1510549,-0.0039251,-0.0050829,-0.0075493
1.2350000,1.2350000,1.2350000,-0.0038770,-0.0010380,-0.1501268,-0.0038770,-0.0050329,-0.0074455
1.2375000,1.2375000,1.2375000,-0.0038295,-0.0010321,-0.1492063,-0.0038295,-0.0049836,-0.0073432
1.2400000,1.2400000,1.2400000,-0.0037828,-0.0010262,-0.1482933,-0.0037828,-0.0049349,-0.0072425
1.2425000,1.2425000,1.2425000,-0.0037367,-0.0010203,-0.1473878,-0.0037367,-0.0048869,-0.0071432
1.2450000,1.2450000,1.2450000,-0.0036912,-0.0010145,-0.1464897,-0.0036912,-0.0048394,-0.0070455
1.2475000,1.2475000,1.2475000,-0.0036465,-0.0010088,-0.1455989,-0.0036465,-0.0047926,-0.0069491
1.2500000,1.2500000,1.2500000,-0.0036023,-0.0010030,-0.1447153,-0.0036023,-0.0047463,-0.0068542
1.2525000,1.2525000,1.2525000,-0.0035588,-0.0009974,-0.1438389,-0.0035588,-0.0047007,-0.0067607
1.2550000,1.2550000,1.2550000,-0.0035159,-0.0009917,-0.1429696,-0.0035159,-0.0046556,-0.0066686
1.2575000,1.2575000,1.2575000,-0.0034735,-0.0009861,-0.1421072,-0.0034735,-0.0046110,-0.0065779
1.2600000,1.2600000,1.2600000,-0.0034318,-0.0009806,-0.1412519,-0.0034318,-0.0045671,-0.0064884
1.2625000,1.2625000,1.2625000,-0.0033907,-0.0009751,-0.1404034,-0.0033907,-0.0045236,-0.0064003
1.2650000,1.2650000,1.2650000,-0.0033501,-0.0009696,-0.1395617,-0.0033501,-0.0044807,-0.0063135
1.2675000,1.2675000,1.2675000,-0.0033101,-0.0009642,-0.1387267,-0.0033101,-0.0044384,-0.0062280
1.2700000,1.2700000,1.2700000,-0.0032707,-0.0009588,-0.1378984,-0.0032707,-0.0043965,-0.0061437
1.2725000,1.2725000,1.2725000,-0.0032318,-0.0009534,-0.1370768,-0.0032318,-0.0043552,-0.0060606
1.2750000,1.2750000,1.2750000,-0.0031935,-0.0009481,-0.1362616,-0.0031935,-0.0043144,-0.0059787
1.2775000,1.2775000,1.2775000,-0.0031556,-0.0009428,-0.1354529,-0.0031556,-0.0042741,-0.0058981
1.2800000,1.2800000,1.2800000,-0.0031183,-0.0009376,-0.1346507,-0.0031183,-0.0042343,-0.0058186
1.2825000,1.2825000,1.2825000,-0.0030816,-0.0009324,-0.1338547,-0.0030816,-0.0041950,-0.0057402
1.2850000,1.2850000,1.2850000,-0.0030453,-0.0009272,-0.1330651,-0.0030453,-0.0041561,-0.0056630
1.2875000,1.2875000,1.2875000,-0.0030095,-0.0009221,-0.1322817,-0.0030095,-0.0041178,-0.0055869
1.2900000,1.2900000,1.2900000,-0.0029742,-0.0009170,-0.1315044,-0.0029742,-0.0040799,-0.0055119
1.2925000,1.2925000,1.2925000,-0.0029394,-0.0009120,-0.1307332,-0.0029394,-0.0040424,-0.0054380
1.2950000,1.2950000,1.2950000,-0.0029051,-0.0009070,-0.1299681,-0.0029051,-0.0040054,-0.0053651
1.2975000,1.2975000,1.2975000,-0.0028712,-0.0009020,-0.1292089,-0.0028712,-0.0039688,-0.0052933
1.3000000,1.3000000,1.3000000,-0.0028378,-0.0008970,-0.1284557,-0.0028378,-0.0039327,-0.0052225
1.3025000,1.3025000,1.3025000,-0.0028049,-0.0008921,-0.1277083,-0.0028049,-0.0038970,-0.0051527
1.3050000,1.3050000,1.3050000,-0.0027724,-0.0008873,-0.1269668,-0.0027724,-0.0038618,-0.0050840
1.3075000,1.3075000,1.3075000,-0.0027403,-0.0008824,-0.1262309,-0.0027403,-0.0038269,-0.0050162
1.3100000,1.3100000,1.3100000,-0.0027087,-0.0008776,-0.1255008,-0.0027087,-0.0037925,-0.0049493
1.3125000,1.3125000,1.3125000,-0.0026775,-0.0008729,-0.1247763,-0.0026775,-0.0037585,-0.0048835
1.3150000,1.3150000,1.3150000,-0.0026467,-0.0008681,-0.1240574,-0.0026467,-0.0037249,-0.0048185
1.3175000,1.3175000,1.3175000,-0.0026163,-0.0008634,-0.1233440,-0.0026163,-0.0036917,-0.0047545
1.3200000,1.3200000,1.3200000,-0.0025864,-0.0008588,-0.1226361,-0.0025864,-0.0036588,-0.0046914
1.3225000,1.3225000,1.3225000,-0.0025568,-0.0008541,-0.1219336,-0.0025568,-0.0036264,-0.0046291
1.3250000,1.3250000,1.3250000,-0.0025276,-0.0008495,-0.1212365,-0.0025276,-0.0035943,-0.0045678
1.3275000,1.3275000,1.3275000,-0.0024989,-0.0008450,-0.1205447,-0.0024989,-0.0035626,-0.0045073
1.3300000,1.3300000,1.3300000,-0.0024705,-0.0008404,-0.1198582,-0.0024705,-0.0035313,-0.0044476
1.3325000,1.3325000,1.3325000,-0.0024424,-0.0008359,-0.1191769,-0.0024424,-0.0035004,-0.0043888
1.3350000,1.3350000,1.3350000,-0.0024148,-0.0008314,-0.1185008,-0.0024148,-0.0034698,-0.0043309
1.3375000,1.3375000,1.3375000,-0.0023875,-0.0008270,-0.1178298,-0.0023875,-0.0034395,-0.0042737
1.3400000,1.3400000,1.3400000,-0.0023606,-0.0008226,-0.1171638,-0.0023606,-0.0034096,-0.0042173
1.3425000,1.3425000,1.3425000,-0.0023340,-0.0008182,-0.1165029,-0.0023340,-0.0033801,-0.0041617
1.3450000,1.3450000,1.3450000,-0.0023078,-0.0008139,-0.1158470,-0.0023078,-0.0033508,-0.0041069
1.3475000,1.3475000,1.3475000,-0.0022819,-0.0008096,-0.1151960,-0.0022819,-0.0033220,-0.0040529
1.3500000,1.3500000,1.3500000,-0.0022564,-0.0008053,-0.1145498,-0.0022564,-0.0032934,-0.0039996
1.3525000,1.3525000,1.3525000,-0.0022312,-0.0008010,-0.1139085,-0.0022312,-0.0032652,-0.0039470
1.3550000,1.3550000,1.3550000,-0.0022063,-0.0007968,-0.1132720,-0.0022063,-0.0032373,-0.0038952
1.3575000,1.3575000,1.3575000,-0.0021817,-0.0007926,-0.1126403,-0.0021817,-0.0032097,-0.0038441
1.3600000,1.3600000,1.3600000,-0.0021575,-0.0007884,-0.1120132,-0.0021575,-0.0031824,-0.0037937
1.3625000,1.3625000,1.3625000,-0.0021336,-0.0007843,-0.1113909,-0.0021336,-0.0031554,-0.0037439
1.3650000,1.3650000,1.3650000,-0.0021099,-0.0007802,-0.1107731,-0.0021099,-0.0031288,-0.0036949
1.3675000,1.3675000,1.3675000,-0.0020866,-0.0007761,-0.1101599,-0.0020866,-0.0031024,-0.0036466
1.3700000,1.3700000,1.3700000,-0.0020636,-0.0007720,-0.1095512,-0.0020636,-0.0030763,-0.0035989
1.3725000,1.3725000,1.3725000,-0.0020409,-0.0007680,-0.1089470,-0.0020409,-0.0030505,-0.0035518
1.3750000,1.3750000,1.3750000,-0.0020185,-0.0007640,-0.1083473,-0.0020185,-0.0030250,-0.0035054
1.3775000,1.3775000,1.3775000,-0.0019964,-0.0007600,-0.1077520,-0.0019964,-0.0029998,-0.0034597
1.3800000,1.3800000,1.3800000,-0.0019745,-0.0007561,-0.1071610,-0.0019745,-0.0029749,-0.0034145
1.3825000,1.3825000,1.3825000,-0.0019529,-0.0007522,-0.1065744,-0.0019529,-0.0029502,-0.0033700
1.3850000,1.3850000,1.3850000,-0.0019317,-0.0007483,-0.1059920,-0.0019317,-0.0029258,-0.0033261
1.3875000,1.3875000,1.3875000,-0.0019106,-0.0007444,-0.1054139,-0.0019106,-0.0029017,-0.0032827
1.3900000,1.3900000,1.3900000,-0.0018899,-0.0007406,-0.1048400,-0.0018899,-0.0028779,-0.0032400
1.3925000,1.3925000,1.3925000,-0.0018694,-0.0007367,-0.1042703,-0.0018694,-0.0028543,-0.0031979
1.3950000,1.3950000,1.3950000,-0.0018491,-0.0007330,-0.1037047,-0.0018491,-0.0028309,-0.0031563
1.3975000,1.3975000,1.3975000,-0.0018292,-0.0007292,-0.1031432,-0.0018292,-0.0028079,-0.0031152
1.4000000,1.4000000,1.4000000,-0.0018094,-0.0007255,-0.1025857,-0.0018094,-0.0027850,-0.0030748
1.4025000,1.4025000,1.4025000,-0.0017899,-0.0007217,-0.1020323,-0.0017899,-0.0027624,-0.0030348
1.4050000,1.4050000,1.4050000,-0.0017707,-0.0007181,-0.1014829,-0.0017707,-0.0027401,-0.0029954
1.4075000,1.4075000,1.4075000,-0.0017517,-0.0007144,-0.1009374,-0.0017517,-0.0027180,-0.0029566
1.4100000,1.4100000,1.4100000,-0.0017330,-0.0007108,-0.1003958,-0.0017330,-0.0026961,-0.0029182
1.4125000,1.4125000,1.4125000,-0.0017144,-0.0007071,-0.0998581,-0.0017144,-0.0026745,-0.0028804
1.4150000,1.4150000,1.4150000,-0.0016961,-0.0007036,-0.0993242,-0.0016961,-0.0026531,-0.0028431
1.4175000,1.4175000,1.4175000,-0.0016781,-0.0007000,-0.0987942,-0.0016781,-0.0026319,-0.0028063
1.4200000,1.4200000,1.4200000,-0.0016602,-0.0006965,-0.0982679,-0.0016602,-0.0026110,-0.0027699
1.4225000,1.4225000,1.4225000,-0.0016426,-0.0006929,-0.0977454,-0.0016426,-0.0025903,-0.0027341
1.4250000,1.4250000,1.4250000,-0.0016252,-0.0006894,-0.0972266,-0.0016252,-0.0025698,-0.0026987
1.4275000,1.4275000,1.4275000,-0.0016080,-0.0006860,-0.0967114,-0.0016080,-0.0025495,-0.0026638
1.4300000,1.4300000,1.4300000,-0.0015911,-0.0006825,-0.0961999,-0.0015911,-0.0025294,-0.0026294
1.4325000,1.4325000,1.4325000,-0.0015743,-0.0006791,-0.0956920,-0.0015743,-0.0025096,-0.0025954
1.4350000,1.4350000,1.4350000,-0.0015577,-0.0006757,-0.0951877,-0.0015577,-0.0024899,-0.0025619
1.4375000,1.4375000,1.4375000,-0.0015414,-0.0006723,-0.0946869,-0.0015414,-0.0024705,-0.0025288
1.4400000,1.4400000,1.4400000,-0.0015252,-0.0006690,-0.0941897,-0.0015252,-0.0024512,-0.0024961
1.4425000,1.4425000,1.4425000,-0.0015093,-0.0006656,-0.0936959,-0.0015093,-0.0024322,-0.0024639
1.4450000,1.4450000,1.4450000,-0.0014935,-0.0006623,-0.0932056,-0.0014935,-0.0024133,-0.0024321
1.4475000,1.4475000,1.4475000,-0.0014779,-0.0006590,-0.0927187,-0.0014779,-0.0023947,-0.0024007
1.4500000,1.4500000,1.4500000,-0.0014626,-0.0006557,-0.0922352,-0.0014626,-0.0023762,-0.0023698
1.4525000,1.4525000,1.4525000,-0.0014474,-0.0006525,-0.0917550,-0.0014474,-0.0023580,-0.0023392
1.4550000,1.4550000,1.4550000,-0.0014324,-0.0006493,-0.0912782,-0.0014324,-0.0023399,-0.0023091
1.4575000,1.4575000,1.4575000,-0.0014175,-0.0006461,-0.0908047,-0.0014175,-0.0023220,-0.0022793
1.4600000,1.4600000,1.4600000,-0.0014029,-0.0006429,-0.0903345,-0.0014029,-0.0023043,-0.0022499
1.4625000,1.4625000,1.4625000,-0.0013884,-0.0006397,-0.0898675,-0.0013884,-0.0022868,-0.0022209
1.4650000,1.4650000,1.4650000,-0.0013741,-0.0006366,-0.0894038,-0.0013741,-0.0022694,-0.0021923
1.4675000,1.4675000,1.4675000,-0.0013600,-0.0006334,-0.0889432,-0.0013600,-0.0022523,-0.0021641
1.4700000,1.4700000,1.4700000,-0.0013460,-0.0006303,-0.0884859,-0.0013460,-0.0022353,-0.0021362
1.4725000,1.4725000,1.4725000,-0.0013322,-0.0006273,-0.0880316,-0.0013322,-0.0022185,-0.0021087
1.4750000,1.4750000,1.4750000,-0.0013186,-0.0006242,-0.0875805,-0.0013186,-0.0022018,-0.0020815
1.4775000,1.4775000,1.4775000,-0.0013052,-0.0006212,-0.0871324,-0.0013052,-0.0021853,-0.0020547
1.4800000,1.4800000,1.4800000,-0.0012918,-0.0006181,-0.0866874,-0.0012918,-0.0021690,-0.0020282
1.4825000,1.4825000,1.4825000,-0.0012787,-0.0006151,-0.0862455,-0.0012787,-0.0021528,-0.0020021
1.4850000,1.4850000,1.4850000,-0.0012657,-0.0006121,-0.0858065,-0.0012657,-0.0021368,-0.0019763
1.4875000,1.4875000,1.4875000,-0.0012529,-0.0006092,-0.0853705,-0.0012529,-0.0021210,-0.0019509
1.4900000,1.4900000,1.4900000,-0.0012402,-0.0006062,-0.0849375,-0.0012402,-0.0021053,-0.0019258
1.4925000,1.4925000,1.4925000,-0.0012277,-0.0006033,-0.0845074,-0.0012277,-0.0020898,-0.0019010
1.4950000,1.4950000,1.4950000,-0.0012153,-0.0006004,-0.0840802,-0.0012153,-0.0020745,-0.0018765
1.4975000,1.4975000,1.4975000,-0.0012030,-0.0005975,-0.0836559,-0.0012030,-0.0020592,-0.0018523
1.5000000,1.5000000,1.5000000,-0.0011909,-0.0005946,-0.0832345,-0.0011909,-0.0020442,-0.0018285
1.5025000,1.5025000,1.5025000,-0.0011790,-0.0005918,-0.0828159,-0.0011790,-0.0020293,-0.0018049
1.5050000,1.5050000,1.5050000,-0.0011672,-0.0005889,-0.0824001,-0.0011672,-0.0020145,-0.0017817
1.5075000,1.5075000,1.5075000,-0.0011555,-0.0005861,-0.0819870,-0.0011555,-0.0019999,-0.0017587
1.5100000,1.5100000,1.5100000,-0.0011440,-0.0005833,-0.0815768,-0.0011440,-0.0019854,-0.0017361
1.5125000,1.5125000,1.5125000,-0.0011326,-0.0005805,-0.0811693,-0.0011326,-0.0019711,-0.0017137
1.5150000,1.5150000,1.5150000,-0.0011213,-0.0005778,-0.0807645,-0.0011213,-0.0019569,-0.0016916
1.5175000,1.5175000,1.5175000,-0.0011101,-0.0005750,-0.0803624,-0.0011101,-0.0019428,-0.0016698
1.5200000,1.5200000,1.5200000,-0.0010991,-0.0005723,-0.0799629,-0.0010991,-0.0019289,-0.0016483
1.5225000,1.5225000,1.5225000,-0.0010882,-0.0005696,-0.0795661,-0.0010882,-0.0019151,-0.0016270
1.5250000,1.5250000,1.5250000,-0.0010775,-0.0005669,-0.0791720,-0.0010775,-0.0019014,-0.0016060
1.5275000,1.5275000,1.5275000,-0.0010668,-0.0005642,-0.0787804,-0.0010668,-0.0018879,-0.0015853
1.5300000,1.5300000,1.5300000,-0.0010563,-0.0005615,-0.0783914,-0.0010563,-0.0018745,-0.0015648
1.5325000,1.5325000,1.5325000,-0.0010459,-0.0005589,-0.0780050,-0.0010459,-0.0018612,-0.0015446
1.5350000,1.5350000,1.5350000,-0.0010357,-0.0005562,-0.0776212,-0.0010357,-0.0018481,-0.0015247
1.5375000,1.5375000,1.5375000,-0.0010255,-0.0005536,-0.0772398,-0.0010255,-0.0018351,-0.0015050
1.5400000,1.5400000,1.5400000,-0.0010155,-0.0005510,-0.0768610,-0.0010155,-0.0018222,-0.0014855
1.5425000,1.5425000,1.5425000,-0.0010056,-0.0005484,-0.0764846,-0.0010056,-0.0018094,-0.0014663
1.5450000,1.5450000,1.5450000,-0.0009957,-0.0005459,-0.0761107,-0.0009957,-0.0017968,-0.0014474
1.5475000,1.5475000,1.5475000,-0.0009860,-0.0005433,-0.0757392,-0.0009860,-0.0017842,-0.0014286
1.5500000,1.5500000,1.5500000,-0.0009765,-0.0005408,-0.0753701,-0.0009765,-0.0017718,-0.0014102
1.5525000,1.5525000,1.5525000,-0.0009670,-0.0005383,-0.0750035,-0.0009670,-0.0017595,-0.0013919
1.5550000,1.5550000,1.5550000,-0.0009576,-0.0005358,-0.0746392,-0.0009576,-0.0017474,-0.0013739
1.5575000,1.5575000,1.5575000,-0.0009483,-0.0005333,-0.0742773,-0.0009483,-0.0017353,-0.0013561
1.5600000,1.5600000,1.5600000,-0.0009392,-0.0005308,-0.0739177,-0.0009392,-0.0017233,-0.0013385
1.5625000,1.5625000,1.5625000,-0.0009301,-0.0005283,-0.0735605,-0.0009301,-0.0017115,-0.0013211
1.5650000,1.5650000,1.5650000,-0.0009211,-0.0005259,-0.0732055,-0.0009211,-0.0016998,-0.0013040
1.5675000,1.5675000,1.5675000,-0.0009123,-0.0005235,-0.0728529,-0.0009123,-0.0016882,-0.0012870
1.5700000,1.5700000,1.5700000,-0.0009035,-0.0005211,-0.0725025,-0.0009035,-0.0016766,-0.0012703
1.5725000,1.5725000,1.5725000,-0.0008949,-0.0005187,-0.0721543,-0.0008949,-0.0016652,-0.0012538
1.5750000,1.5750000,1.5750000,-0.0008863,-0.0005163,-0.0718084,-0.0008863,-0.0016539,-0.0012375
1.5775000,1.5775000,1.5775000,-0.0008778,-0.0005139,-0.0714647,-0.0008778,-0.0016427,-0.0012214
1.5800000,1.5800000,1.5800000,-0.0008695,-0.0005116,-0.0711232,-0.0008695,-0.0016317,-0.0012055
1.5825000,1.5825000,1.5825000,-0.0008612,-0.0005092,-0.0707838,-0.0008612,-0.0016207,-0.0011898
1.5850000,1.5850000,1.5850000,-0.0008530,-0.0005069,-0.0704467,-0.0008530,-0.0016098,-0.0011742
1.5875000,1.5875000,1.5875000,-0.0008449,-0.0005046,-0.0701116,-0.0008449,-0.0015990,-0.0011589
1.5900000,1.5900000,1.5900000,-0.0008369,-0.0005023,-0.0697787,-0.0008369,-0.0015883,-0.0011438
1.5925000,1.5925000,1.5925000,-0.0008290,-0.0005000,-0.0694479,-0.0008290,-0.0015777,-0.0011288
1.5950000,1.5950000,1.5950000,-0.0008212,-0.0004977,-0.0691192,-0.0008212,-0.0015672,-0.0011140
1.5975000,1.5975000,1.5975000,-0.0008134,-0.0004955,-0.0687926,-0.0008134,-0.0015568,-0.0010995
