# r[nm],d[nm],daligned[nm],U(d)[kj/mol],V(d)[e/nm],Uslab(d)[kJ/mol],UC(d)[kJ/mol],UK(d)[kJ/mol],UCl(d)[kJ/mol]
0.1775000,0.1775000,0.1775000,1771.0943814,-0.3633500,405.5336903,1771.0943814,1115.6997021,inf
0.1800000,0.1800000,0.1800000,1566.5281123,-0.3528527,347.0923247,1566.5281123,985.9837587,inf
0.1825000,0.1825000,0.1825000,1386.8994485,-0.3427077,297.7514026,1386.8994485,872.1693603,inf
0.1850000,0.1850000,0.1850000,1228.9861706,-0.3329124,255.8751950,1228.9861706,772.1919120,inf
0.1875000,0.1875000,0.1875000,1089.9588356,-0.3243420,220.1884221,1089.9588356,684.2063473,inf
0.1900000,0.1900000,0.1900000,966.2717228,-0.3316665,189.7319599,966.2717228,606.2109144,inf
0.1925000,0.1925000,0.1925000,853.8589697,-0.3432442,163.7417944,853.8589697,536.1761681,inf
0.1950000,0.1950000,0.1950000,754.1029575,-0.3375017,141.5622103,754.1029575,473.6562335,inf
0.1975000,0.1975000,0.1975000,666.6358574,-0.3290548,122.6194389,666.6358574,418.5559408,inf
0.2000000,0.2000000,0.2000000,589.9648174,-0.3204912,106.4133187,589.9648174,370.2032781,inf
0.2025000,0.2025000,0.2025000,522.6865900,-0.3121237,92.5014357,522.6865900,327.7870579,inf
0.2050000,0.2050000,0.2050000,463.5815149,-0.3039993,80.4793371,463.5815149,290.5529634,inf
0.2075000,0.2075000,0.2075000,411.5971420,-0.2961221,69.9838390,411.5971420,257.8364352,1737.5798770
0.2100000,0.2100000,0.2100000,365.8250543,-0.2884877,60.7336719,365.8250543,229.0573868,1546.3985865
0.2125000,0.2125000,0.2125000,325.4797437,-0.2810944,52.5580548,325.4797437,203.7047052,1377.5131485
0.2150000,0.2150000,0.2150000,289.8791218,-0.2739656,45.3619978,289.8791218,181.3162113,1228.1573576
0.2175000,0.2175000,0.2175000,258.4236794,-0.2672191,39.0691023,258.4236794,161.4629536,1095.9314722
0.2200000,0.2200000,0.2200000,230.5714521,-0.2611953,33.5951459,230.5714521,143.7569847,978.7503818
0.2225000,0.2225000,0.2225000,205.8152793,-0.2565029,28.8489020,205.8152793,127.8888125,874.7995793
0.2250000,0.2250000,0.2250000,183.6882939,-0.2535898,24.7398161,183.6882939,113.6519399,782.4976598
0.2275000,0.2275000,0.2275000,163.8151125,-0.2519512,21.1835444,163.8151125,100.9127655,700.4638289
0.2300000,0.2300000,0.2300000,145.9513021,-0.2503050,18.1044505,145.9513021,89.5592215,627.4853525
0.2325000,0.2325000,0.2325000,129.9425808,-0.2477612,15.4361634,129.9425808,79.4747868,562.4649416
0.2350000,0.2350000,0.2350000,115.6544362,-0.2442199,13.1211730,115.6544362,70.5375787,504.3175877
0.2375000,0.2375000,0.2375000,102.9416685,-0.2399537,11.1100093,102.9416685,62.6270702,451.9324405
0.2400000,0.2400000,0.2400000,91.6514898,-0.2352569,9.3602316,91.6514898,55.6295473,404.5170540
0.2425000,0.2425000,0.2425000,81.6337563,-0.2303409,7.8353103,81.6337563,49.4408498,361.7882863
0.2450000,0.2450000,0.2450000,72.7478649,-0.2253387,6.5035107,72.7478649,43.9671679,323.5304203
0.2475000,0.2475000,0.2475000,64.8657658,-0.2203302,5.3369833,64.8657658,39.1247742,289.3912629
0.2500000,0.2500000,0.2500000,57.8726041,-0.2153625,4.3112506,57.8726041,34.8392611,258.9601406
0.2525000,0.2525000,0.2525000,51.6661819,-0.2104627,3.4051051,51.6661819,31.0446136,231.8356180
0.2550000,0.2550000,0.2550000,46.1559160,-0.2056458,2.6007158,46.1559160,27.6822933,207.6497785
0.2575000,0.2575000,0.2575000,41.2616273,-0.2009193,1.8836555,41.2616273,24.7004170,186.0732260
0.2600000,0.2600000,0.2600000,36.9123328,-0.1962851,1.2426558,36.9123328,22.0530628,166.8136118
0.2625000,0.2625000,0.2625000,33.0451246,-0.1917419,0.6690770,33.0451246,19.6996922,149.6122900
0.2650000,0.2650000,0.2650000,29.6041799,-0.1872857,0.1562206,29.6041799,17.6046615,134.2406441
0.2675000,0.2675000,0.2675000,26.5399218,-0.1829113,-0.3013473,26.5399218,15.7367839,120.4965926
0.2700000,0.2700000,0.2700000,23.8083293,-0.1786134,-0.7083376,23.8083293,14.0689096,108.2014222
0.2725000,0.2725000,0.2725000,21.3703770,-0.1743880,-1.0690960,21.3703770,12.5775059,97.1969753
0.2750000,0.2750000,0.2750000,19.1915746,-0.1702329,-1.3877895,19.1915746,11.2422318,87.3431740
0.2775000,0.2775000,0.2775000,17.2415680,-0.1661488,-1.6684651,17.2415680,10.0455180,78.5158471
0.2800000,0.2800000,0.2800000,15.4937691,-0.1621391,-1.9150329,15.4937691,8.9721652,70.6048270
0.2825000,0.2825000,0.2825000,13.9249928,-0.1582092,-2.1312160,13.9249928,8.0089761,63.5122795
0.2850000,0.2850000,0.2850000,12.5150901,-0.1543657,-2.3204994,12.5150901,7.1444280,57.1512361
0.2875000,0.2875000,0.2875000,11.2465811,-0.1506154,-2.4860934,11.2465811,6.3683904,51.4442986
0.2900000,0.2900000,0.2900000,10.1042985,-0.1469641,-2.6309172,10.1042985,5.6718880,46.3224919
0.2925000,0.2925000,0.2925000,9.0750498,-0.1434156,-2.7575988,9.0750498,5.0469067,41.7242477
0.2950000,0.2950000,0.2950000,8.1473095,-0.1399719,-2.8684834,8.1473095,4.4862423,37.5945071
0.2975000,0.2975000,0.2975000,7.3109465,-0.1366325,-2.9656456,7.3109465,3.9833860,33.8839379
0.3000000,0.3000000,0.3000000,6.5569877,-0.1333948,-3.0509019,6.5569877,3.5324416,30.5482652
0.3025000,0.3025000,0.3025000,5.8774222,-0.1302541,-3.1258237,5.8774222,3.1280671,27.5477120
0.3050000,0.3050000,0.3050000,5.2650433,-0.1272042,-3.1917516,5.2650433,2.7654314,24.8465416
0.3075000,0.3075000,0.3075000,4.7133275,-0.1242377,-3.2498139,4.7133275,2.4401805,22.4126869
0.3100000,0.3100000,0.3100000,4.2163458,-0.1213465,-3.3009509,4.2163458,2.1484056,20.2174466
0.3125000,0.3125000,0.3125000,3.7687007,-0.1185224,-3.3459445,3.7687007,1.8866110,18.2352255
0.3150000,0.3150000,0.3150000,3.3654810,-0.1157573,-3.3854502,3.3654810,1.6516793,16.4432966
0.3175000,0.3175000,0.3175000,3.0022288,-0.1130442,-3.4200238,3.0022288,1.4408334,14.8215703
0.3200000,0.3200000,0.3200000,2.6749113,-0.1103771,-3.4501366,2.6749113,1.2515973,13.3523587
0.3225000,0.3225000,0.3225000,2.3798930,-0.1077514,-3.4761795,2.3798930,1.0817554,12.0201338
0.3250000,0.3250000,0.3250000,2.1139072,-0.1051637,-3.4984611,2.1139072,0.9293142,10.8112811
0.3275000,0.3275000,0.3275000,1.8740245,-0.1026117,-3.5172108,1.8740245,0.7924666,9.7138545
0.3300000,0.3300000,0.3300000,1.6576194,-0.1000938,-3.5325929,1.6576194,0.6695615,8.7173406
0.3325000,0.3325000,0.3325000,1.4623358,-0.0976089,-3.5447330,1.4623358,0.5590781,7.8124394
0.3350000,0.3350000,0.3350000,1.2860529,-0.0951562,-3.5537492,1.2860529,0.4596086,6.9908683
0.3375000,0.3375000,0.3375000,1.1268516,-0.0927345,-3.5597783,1.1268516,0.3698484,6.2451938
0.3400000,0.3400000,0.3400000,0.9829847,-0.0903422,-3.5629922,0.9829847,0.2885930,5.5686925
0.3425000,0.3425000,0.3425000,0.8528489,-0.0879772,-3.5636028,0.8528489,0.2147424,4.9552419
0.3450000,0.3450000,0.3450000,0.7349645,-0.0856364,-3.5618576,0.7349645,0.1473070,4.3992369
0.3475000,0.3475000,0.3475000,0.6279612,-0.0833166,-3.5580287,0.6279612,0.0854147,3.8955294
0.3500000,0.3500000,0.3500000,0.5305717,-0.0810140,-3.5523975,0.5305717,0.0283141,3.4393848
0.3525000,0.3525000,0.3525000,0.4416332,-0.0787254,-3.5452349,0.4416332,-0.0246263,3.0264496
0.3550000,0.3550000,0.3550000,0.3600927,-0.0764488,-3.5367802,0.3600927,-0.0739227,2.6527272
0.3575000,0.3575000,0.3575000,0.2850126,-0.0741833,-3.5272215,0.2850126,-0.1199863,2.3145568
0.3600000,0.3600000,0.3600000,0.2155751,-0.0719303,-3.5166801,0.2155751,-0.1631373,2.0085932
0.3625000,0.3625000,0.3625000,0.1510814,-0.0696926,-3.5052026,0.1510814,-0.2036215,1.7317865
0.3650000,0.3650000,0.3650000,0.0909466,-0.0674747,-3.4927616,0.0909466,-0.2416280,1.4813617
0.3675000,0.3675000,0.3675000,0.0346900,-0.0652818,-3.4792666,0.0346900,-0.2773050,1.2547963
0.3700000,0.3700000,0.3700000,-0.0180786,-0.0631195,-3.4645833,-0.0180786,-0.3107711,1.0497977
0.3725000,0.3725000,0.3725000,-0.0676739,-0.0609928,-3.4485566,-0.0676739,-0.3421227,0.8642792
0.3750000,0.3750000,0.3750000,-0.1143492,-0.0589062,-3.4310327,-0.1143492,-0.3714384,0.6963358
0.3775000,0.3775000,0.3775000,-0.1583092,-0.0568630,-3.4118775,-0.1583092,-0.3987825,0.5442212
0.3800000,0.3800000,0.3800000,-0.1997185,-0.0548661,-3.3909875,-0.1997185,-0.4242111,0.4063282
0.3825000,0.3825000,0.3825000,-0.2387077,-0.0529173,-3.3682957,-0.2387077,-0.4477799,0.2811753
0.3850000,0.3850000,0.3850000,-0.2753776,-0.0510185,-3.3437730,-0.2753776,-0.4695536,0.1673982
0.3875000,0.3875000,0.3875000,-0.3098052,-0.0491713,-3.3174264,-0.3098052,-0.4896149,0.0637477
0.3900000,0.3900000,0.3900000,-0.3420511,-0.0473776,-3.2892965,-0.3420511,-0.5080709,-0.0309101
0.3925000,0.3925000,0.3925000,-0.3721699,-0.0456387,-3.2594530,-0.3721699,-0.5250573,-0.1175931
0.3950000,0.3950000,0.3950000,-0.4002209,-0.0439562,-3.2279905,-0.4002209,-0.5407372,-0.1972042
0.3975000,0.3975000,0.3975000,-0.4262786,-0.0423306,-3.1950233,-0.4262786,-0.5552964,-0.2705359
0.4000000,0.4000000,0.4000000,-0.4504405,-0.0407620,-3.1606803,-0.4504405,-0.5689325,-0.3382784
0.4025000,0.4025000,0.4025000,-0.4728320,-0.0392498,-3.1251008,-0.4728320,-0.5818407,-0.4010285
0.4050000,0.4050000,0.4050000,-0.4936069,-0.0377920,-3.0884295,-0.4936069,-0.5941980,-0.4593003
0.4075000,0.4075000,0.4075000,-0.5129435,-0.0363863,-3.0508129,-0.5129435,-0.6061496,-0.5135336
0.4100000,0.4100000,0.4100000,-0.5310350,-0.0350297,-3.0123957,-0.5310350,-0.6178006,-0.5641000
0.4125000,0.4125000,0.4125000,-0.5480777,-0.0337189,-2.9733186,-0.5480777,-0.6292134,-0.6113079
0.4150000,0.4150000,0.4150000,-0.5642562,-0.0324506,-2.9337160,-0.5642562,-0.6404125,-0.6554060
0.4175000,0.4175000,0.4175000,-0.5797311,-0.0312221,-2.8937144,-0.5797311,-0.6513916,-0.6965889
0.4200000,0.4200000,0.4200000,-0.5946302,-0.0300310,-2.8534318,-0.5946302,-0.6621201,-0.7350044
0.4225000,0.4225000,0.4225000,-0.6090452,-0.0288758,-2.8129770,-0.6090452,-0.6725469,-0.7707635
0.4250000,0.4250000,0.4250000,-0.6230331,-0.0277552,-2.7724492,-0.6230331,-0.6826004,-0.8039532
0.4275000,0.4275000,0.4275000,-0.6366201,-0.0266686,-2.7319382,-0.6366201,-0.6921862,-0.8346494
0.4300000,0.4300000,0.4300000,-0.6498053,-0.0256157,-2.6915250,-0.6498053,-0.7011873,-0.8629295
0.4325000,0.4325000,0.4325000,-0.6625629,-0.0245966,-2.6512816,-0.6625629,-0.7094678,-0.8888830
0.4350000,0.4350000,0.4350000,-0.6748415,-0.0236117,-2.6112719,-0.6748415,-0.7168808,-0.9126191
0.4375000,0.4375000,0.4375000,-0.6865634,-0.0226621,-2.5715521,-0.6865634,-0.7232805,-0.9342702
0.4400000,0.4400000,0.4400000,-0.6976258,-0.0217491,-2.5321713,-0.6976258,-0.7285356,-0.9539922
0.4425000,0.4425000,0.4425000,-0.7079050,-0.0208743,-2.4931721,-0.7079050,-0.7325407,-0.9719595
0.4450000,0.4450000,0.4450000,-0.7172652,-0.0200396,-2.4545912,-0.7172652,-0.7352241,-0.9883585
0.4475000,0.4475000,0.4475000,-0.7255695,-0.0192463,-2.4164598,-0.7255695,-0.7365500,-1.0033778
0.4500000,0.4500000,0.4500000,-0.7326929,-0.0184957,-2.3788043,-0.7326929,-0.7365163,-1.0171990
0.4525000,0.4525000,0.4525000,-0.7385320,-0.0177881,-2.3416468,-0.7385320,-0.7351487,-1.0299888
0.4550000,0.4550000,0.4550000,-0.7430129,-0.0171233,-2.3050053,-0.7430129,-0.7324948,-1.0418928
0.4575000,0.4575000,0.4575000,-0.7460936,-0.0165007,-2.2688944,-0.7460936,-0.7286172,-1.0530320
0.4600000,0.4600000,0.4600000,-0.7477626,-0.0159188,-2.2333258,-0.7477626,-0.7235886,-1.0634997
0.4625000,0.4625000,0.4625000,-0.7480350,-0.0153760,-2.1983079,-0.7480350,-0.7174883,-1.0733597
0.4650000,0.4650000,0.4650000,-0.7469476,-0.0148703,-2.1638473,-0.7469476,-0.7103992,-1.0826446
0.4675000,0.4675000,0.4675000,-0.7445534,-0.0143998,-2.1299479,-0.7445534,-0.7024067,-1.0913538
0.4700000,0.4700000,0.4700000,-0.7409177,-0.0139625,-2.0966120,-0.7409177,-0.6935971,-1.0994539
0.4725000,0.4725000,0.4725000,-0.7361139,-0.0135562,-2.0638402,-0.7361139,-0.6840568,-1.1068811
0.4750000,0.4750000,0.4750000,-0.7302216,-0.0131789,-2.0316316,-0.7302216,-0.6738713,-1.1135462
0.4775000,0.4775000,0.4775000,-0.7233245,-0.0128288,-1.9999841,-0.7233245,-0.6631243,-1.1193426
0.4800000,0.4800000,0.4800000,-0.7155085,-0.0125038,-1.9688943,-0.7155085,-0.6518967,-1.1241566
0.4825000,0.4825000,0.4825000,-0.7068610,-0.0122020,-1.9383582,-0.7068610,-0.6402663,-1.1278768
0.4850000,0.4850000,0.4850000,-0.6974692,-0.0119216,-1.9083706,-0.6974692,-0.6283065,-1.1304035
0.4875000,0.4875000,0.4875000,-0.6874192,-0.0116608,-1.8789259,-0.6874192,-0.6160862,-1.1316548
0.4900000,0.4900000,0.4900000,-0.6767952,-0.0114179,-1.8500178,-0.6767952,-0.6036695,-1.1315712
0.4925000,0.4925000,0.4925000,-0.6656782,-0.0111913,-1.8216393,-0.6656782,-0.5911152,-1.1301162
0.4950000,0.4950000,0.4950000,-0.6541458,-0.0109794,-1.7937834,-0.6541458,-0.5784768,-1.1272764
0.4975000,0.4975000,0.4975000,-0.6422711,-0.0107807,-1.7664423,-0.6422711,-0.5658027,-1.1230592
0.5000000,0.5000000,0.5000000,-0.6301224,-0.0105941,-1.7396083,-0.6301224,-0.5531362,-1.1174903
0.5025000,0.5025000,0.5025000,-0.6177632,-0.0104182,-1.7132732,-0.6177632,-0.5405156,-1.1106111
0.5050000,0.5050000,0.5050000,-0.6052517,-0.0102519,-1.6874289,-0.6052517,-0.5279748,-1.1024762
0.5075000,0.5075000,0.5075000,-0.5926409,-0.0100943,-1.6620668,-0.5926409,-0.5155434,-1.0931505
0.5100000,0.5100000,0.5100000,-0.5799789,-0.0099443,-1.6371785,-0.5799789,-0.5032467,-1.0827073
0.5125000,0.5125000,0.5125000,-0.5673086,-0.0098013,-1.6127554,-0.5673086,-0.4911068,-1.0712261
0.5150000,0.5150000,0.5150000,-0.5546685,-0.0096644,-1.5887891,-0.5546685,-0.4791422,-1.0587910
0.5175000,0.5175000,0.5175000,-0.5420923,-0.0095330,-1.5652708,-0.5420923,-0.4673684,-1.0454884
0.5200000,0.5200000,0.5200000,-0.5296098,-0.0094065,-1.5421920,-0.5296098,-0.4557983,-1.0314063
0.5225000,0.5225000,0.5225000,-0.5172470,-0.0092845,-1.5195443,-0.5172470,-0.4444425,-1.0166322
0.5250000,0.5250000,0.5250000,-0.5050261,-0.0091664,-1.4973191,-0.5050261,-0.4333090,-1.0012523
0.5275000,0.5275000,0.5275000,-0.4929664,-0.0090519,-1.4755081,-0.4929664,-0.4224045,-0.9853504
0.5300000,0.5300000,0.5300000,-0.4810841,-0.0089405,-1.4541030,-0.4810841,-0.4117335,-0.9690071
0.5325000,0.5325000,0.5325000,-0.4693927,-0.0088322,-1.4330955,-0.4693927,-0.4012993,-0.9522990
0.5350000,0.5350000,0.5350000,-0.4579035,-0.0087264,-1.4124776,-0.4579035,-0.3911039,-0.9352986
0.5375000,0.5375000,0.5375000,-0.4466256,-0.0086231,-1.3922413,-0.4466256,-0.3811482,-0.9180735
0.5400000,0.5400000,0.5400000,-0.4355662,-0.0085220,-1.3723786,-0.4355662,-0.3714319,-0.9006864
0.5425000,0.5425000,0.5425000,-0.4247309,-0.0084229,-1.3528819,-0.4247309,-0.3619541,-0.8831951
0.5450000,0.5450000,0.5450000,-0.4141236,-0.0083257,-1.3337436,-0.4141236,-0.3527132,-0.8656525
0.5475000,0.5475000,0.5475000,-0.4037473,-0.0082303,-1.3149560,-0.4037473,-0.3437068,-0.8481066
0.5500000,0.5500000,0.5500000,-0.3936035,-0.0081365,-1.2965120,-0.3936035,-0.3349322,-0.8306008
0.5525000,0.5525000,0.5525000,-0.3836929,-0.0080442,-1.2784042,-0.3836929,-0.3263860,-0.8131739
0.5550000,0.5550000,0.5550000,-0.3740152,-0.0079534,-1.2606255,-0.3740152,-0.3180646,-0.7958605
0.5575000,0.5575000,0.5575000,-0.3645695,-0.0078640,-1.2431692,-0.3645695,-0.3099643,-0.7786914
0.5600000,0.5600000,0.5600000,-0.3553541,-0.0077758,-1.2260282,-0.3553541,-0.3020807,-0.7616933
0.5625000,0.5625000,0.5625000,-0.3463669,-0.0076890,-1.2091961,-0.3463669,-0.2944097,-0.7448899
0.5650000,0.5650000,0.5650000,-0.3376052,-0.0076033,-1.1926661,-0.3376052,-0.2869466,-0.7283015
0.5675000,0.5675000,0.5675000,-0.3290660,-0.0075187,-1.1764320,-0.3290660,-0.2796870,-0.7119454
0.5700000,0.5700000,0.5700000,-0.3207459,-0.0074353,-1.1604875,-0.3207459,-0.2726261,-0.6958366
0.5725000,0.5725000,0.5725000,-0.3126412,-0.0073529,-1.1448265,-0.3126412,-0.2657592,-0.6799874
0.5750000,0.5750000,0.5750000,-0.3047481,-0.0072716,-1.1294429,-0.3047481,-0.2590816,-0.6644079
0.5775000,0.5775000,0.5775000,-0.2970625,-0.0071913,-1.1143310,-0.2970625,-0.2525886,-0.6491066
0.5800000,0.5800000,0.5800000,-0.2895803,-0.0071121,-1.0994850,-0.2895803,-0.2462754,-0.6340898
0.5825000,0.5825000,0.5825000,-0.2822971,-0.0070338,-1.0848992,-0.2822971,-0.2401372,-0.6193626
0.5850000,0.5850000,0.5850000,-0.2752085,-0.0069564,-1.0705683,-0.2752085,-0.2341696,-0.6049284
0.5875000,0.5875000,0.5875000,-0.2683101,-0.0068801,-1.0564868,-0.2683101,-0.2283677,-0.5907896
0.5900000,0.5900000,0.5900000,-0.2615975,-0.0068046,-1.0426495,-0.2615975,-0.2227273,-0.5769473
0.5925000,0.5925000,0.5925000,-0.2550661,-0.0067301,-1.0290514,-0.2550661,-0.2172436,-0.5634017
0.5950000,0.5950000,0.5950000,-0.2487115,-0.0066564,-1.0156874,-0.2487115,-0.2119125,-0.5501521
0.5975000,0.5975000,0.5975000,-0.2425292,-0.0065837,-1.0025527,-0.2425292,-0.2067295,-0.5371972
0.6000000,0.6000000,0.6000000,-0.2365149,-0.0065118,-0.9896424,-0.2365149,-0.2016905,-0.5245349
0.6025000,0.6025000,0.6025000,-0.2306642,-0.0064408,-0.9769519,-0.2306642,-0.1967913,-0.5121625
0.6050000,0.6050000,0.6050000,-0.2249727,-0.0063707,-0.9644768,-0.2249727,-0.1920280,-0.5000770
0.6075000,0.6075000,0.6075000,-0.2194362,-0.0063014,-0.9522124,-0.2194362,-0.1873965,-0.4882748
0.6100000,0.6100000,0.6100000,-0.2140505,-0.0062330,-0.9401545,-0.2140505,-0.1828931,-0.4767519
0.6125000,0.6125000,0.6125000,-0.2088116,-0.0061654,-0.9282988,-0.2088116,-0.1785139,-0.4655042
0.6150000,0.6150000,0.6150000,-0.2037153,-0.0060986,-0.9166413,-0.2037153,-0.1742554,-0.4545273
0.6175000,0.6175000,0.6175000,-0.1987578,-0.0060326,-0.9051778,-0.1987578,-0.1701141,-0.4438164
0.6200000,0.6200000,0.6200000,-0.1939351,-0.0059675,-0.8939043,-0.1939351,-0.1660864,-0.4333667
0.6225000,0.6225000,0.6225000,-0.1892435,-0.0059031,-0.8828171,-0.1892435,-0.1621690,-0.4231733
0.6250000,0.6250000,0.6250000,-0.1846793,-0.0058395,-0.8719124,-0.1846793,-0.1583586,-0.4132310
0.6275000,0.6275000,0.6275000,-0.1802389,-0.0057767,-0.8611864,-0.1802389,-0.1546521,-0.4035349
0.6300000,0.6300000,0.6300000,-0.1759187,-0.0057147,-0.8506356,-0.1759187,-0.1510464,-0.3940795
0.6325000,0.6325000,0.6325000,-0.1717153,-0.0056535,-0.8402564,-0.1717153,-0.1475385,-0.3848598
0.6350000,0.6350000,0.6350000,-0.1676255,-0.0055930,-0.8300455,-0.1676255,-0.1441255,-0.3758706
0.6375000,0.6375000,0.6375000,-0.1636459,-0.0055333,-0.8199994,-0.1636459,-0.1408046,-0.3671065
0.6400000,0.6400000,0.6400000,-0.1597733,-0.0054743,-0.8101149,-0.1597733,-0.1375730,-0.3585624
0.6425000,0.6425000,0.6425000,-0.1560047,-0.0054161,-0.8003887,-0.1560047,-0.1344282,-0.3502331
0.6450000,0.6450000,0.6450000,-0.1523371,-0.0053585,-0.7908178,-0.1523371,-0.1313674,-0.3421136
0.6475000,0.6475000,0.6475000,-0.1487676,-0.0053017,-0.7813991,-0.1487676,-0.1283883,-0.3341986
0.6500000,0.6500000,0.6500000,-0.1452932,-0.0052457,-0.7721296,-0.1452932,-0.1254885,-0.3264834
0.6525000,0.6525000,0.6525000,-0.1419114,-0.0051903,-0.7630064,-0.1419114,-0.1226655,-0.3189628
0.6550000,0.6550000,0.6550000,-0.1386194,-0.0051356,-0.7540266,-0.1386194,-0.1199172,-0.3116321
0.6575000,0.6575000,0.6575000,-0.1354146,-0.0050816,-0.7451874,-0.1354146,-0.1172412,-0.3044865
0.6600000,0.6600000,0.6600000,-0.1322944,-0.0050283,-0.7364861,-0.1322944,-0.1146355,-0.2975212
0.6625000,0.6625000,0.6625000,-0.1292565,-0.0049756,-0.7279201,-0.1292565,-0.1120981,-0.2907317
0.6650000,0.6650000,0.6650000,-0.1262985,-0.0049236,-0.7194867,-0.1262985,-0.1096269,-0.2841135
0.6675000,0.6675000,0.6675000,-0.1234180,-0.0048723,-0.7111834,-0.1234180,-0.1072200,-0.2776621
0.6700000,0.6700000,0.6700000,-0.1206128,-0.0048216,-0.7030077,-0.1206128,-0.1048754,-0.2713733
0.6725000,0.6725000,0.6725000,-0.1178808,-0.0047716,-0.6949572,-0.1178808,-0.1025915,-0.2652426
0.6750000,0.6750000,0.6750000,-0.1152199,-0.0047222,-0.6870295,-0.1152199,-0.1003664,-0.2592661
0.6775000,0.6775000,0.6775000,-0.1126279,-0.0046734,-0.6792223,-0.1126279,-0.0981984,-0.2534397
0.6800000,0.6800000,0.6800000,-0.1101030,-0.0046252,-0.6715333,-0.1101030,-0.0960858,-0.2477593
0.6825000,0.6825000,0.6825000,-0.1076432,-0.0045777,-0.6639602,-0.1076432,-0.0940271,-0.2422212
0.6850000,0.6850000,0.6850000,-0.1052466,-0.0045307,-0.6565010,-0.1052466,-0.0920207,-0.2368216
0.6875000,0.6875000,0.6875000,-0.1029115,-0.0044843,-0.6491534,-0.1029115,-0.0900652,-0.2315568
0.6900000,0.6900000,0.6900000,-0.1006360,-0.0044386,-0.6419155,-0.1006360,-0.0881589,-0.2264232
0.6925000,0.6925000,0.6925000,-0.0984185,-0.0043934,-0.6347851,-0.0984185,-0.0863006,-0.2214174
0.6950000,0.6950000,0.6950000,-0.0962574,-0.0043487,-0.6277603,-0.0962574,-0.0844889,-0.2165358
0.6975000,0.6975000,0.6975000,-0.0941510,-0.0043047,-0.6208392,-0.0941510,-0.0827224,-0.2117753
0.7000000,0.7000000,0.7000000,-0.0920978,-0.0042611,-0.6140198,-0.0920978,-0.0809999,-0.2071326
0.7025000,0.7025000,0.7025000,-0.0900963,-0.0042182,-0.6073003,-0.0900963,-0.0793201,-0.2026044
0.7050000,0.7050000,0.7050000,-0.0881450,-0.0041758,-0.6006788,-0.0881450,-0.0776818,-0.1981879
0.7075000,0.7075000,0.7075000,-0.0862426,-0.0041339,-0.5941536,-0.0862426,-0.0760838,-0.1938799
0.7100000,0.7100000,0.7100000,-0.0843876,-0.0040925,-0.5877230,-0.0843876,-0.0745251,-0.1896777
0.7125000,0.7125000,0.7125000,-0.0825787,-0.0040517,-0.5813851,-0.0825787,-0.0730044,-0.1855783
0.7150000,0.7150000,0.7150000,-0.0808147,-0.0040113,-0.5751385,-0.0808147,-0.0715208,-0.1815790
0.7175000,0.7175000,0.7175000,-0.0790943,-0.0039715,-0.5689814,-0.0790943,-0.0700732,-0.1776772
0.7200000,0.7200000,0.7200000,-0.0774162,-0.0039322,-0.5629122,-0.0774162,-0.0686607,-0.1738703
0.7225000,0.7225000,0.7225000,-0.0757794,-0.0038933,-0.5569293,-0.0757794,-0.0672822,-0.1701557
0.7250000,0.7250000,0.7250000,-0.0741826,-0.0038550,-0.5510313,-0.0741826,-0.0659368,-0.1665310
0.7275000,0.7275000,0.7275000,-0.0726248,-0.0038171,-0.5452166,-0.0726248,-0.0646236,-0.1629937
0.7300000,0.7300000,0.7300000,-0.0711049,-0.0037797,-0.5394838,-0.0711049,-0.0633418,-0.1595416
0.7325000,0.7325000,0.7325000,-0.0696219,-0.0037428,-0.5338314,-0.0696219,-0.0620904,-0.1561725
0.7350000,0.7350000,0.7350000,-0.0681747,-0.0037063,-0.5282581,-0.0681747,-0.0608686,-0.1528840
0.7375000,0.7375000,0.7375000,-0.0667624,-0.0036703,-0.5227624,-0.0667624,-0.0596757,-0.1496742
0.7400000,0.7400000,0.7400000,-0.0653840,-0.0036347,-0.5173430,-0.0653840,-0.0585108,-0.1465408
0.7425000,0.7425000,0.7425000,-0.0640386,-0.0035995,-0.5119985,-0.0640386,-0.0573732,-0.1434820
0.7450000,0.7450000,0.7450000,-0.0627253,-0.0035648,-0.5067278,-0.0627253,-0.0562622,-0.1404956
0.7475000,0.7475000,0.7475000,-0.0614433,-0.0035306,-0.5015294,-0.0614433,-0.0551771,-0.1375799
0.7500000,0.7500000,0.7500000,-0.0601917,-0.0034967,-0.4964022,-0.0601917,-0.0541171,-0.1347330
0.7525000,0.7525000,0.7525000,-0.0589696,-0.0034633,-0.4913450,-0.0589696,-0.0530815,-0.1319531
0.7550000,0.7550000,0.7550000,-0.0577764,-0.0034302,-0.4863565,-0.0577764,-0.0520699,-0.1292383
0.7575000,0.7575000,0.7575000,-0.0566112,-0.0033976,-0.4814357,-0.0566112,-0.0510814,-0.1265872
0.7600000,0.7600000,0.7600000,-0.0554733,-0.0033654,-0.4765813,-0.0554733,-0.0501155,-0.1239978
0.7625000,0.7625000,0.7625000,-0.0543619,-0.0033335,-0.4717922,-0.0543619,-0.0491716,-0.1214688
0.7650000,0.7650000,0.7650000,-0.0532764,-0.0033021,-0.4670674,-0.0532764,-0.0482492,-0.1189984
0.7675000,0.7675000,0.7675000,-0.0522161,-0.0032710,-0.4624057,-0.0522161,-0.0473476,-0.1165852
0.7700000,0.7700000,0.7700000,-0.0511803,-0.0032403,-0.4578061,-0.0511803,-0.0464663,-0.1142278
0.7725000,0.7725000,0.7725000,-0.0501684,-0.0032100,-0.4532676,-0.0501684,-0.0456048,-0.1119246
0.7750000,0.7750000,0.7750000,-0.0491798,-0.0031800,-0.4487892,-0.0491798,-0.0447626,-0.1096743
0.7775000,0.7775000,0.7775000,-0.0482138,-0.0031505,-0.4443698,-0.0482138,-0.0439392,-0.1074755
0.7800000,0.7800000,0.7800000,-0.0472698,-0.0031212,-0.4400086,-0.0472698,-0.0431341,-0.1053270
0.7825000,0.7825000,0.7825000,-0.0463473,-0.0030923,-0.4357044,-0.0463473,-0.0423468,-0.1032273
0.7850000,0.7850000,0.7850000,-0.0454458,-0.0030638,-0.4314565,-0.0454458,-0.0415768,-0.1011754
0.7875000,0.7875000,0.7875000,-0.0445646,-0.0030356,-0.4272639,-0.0445646,-0.0408239,-0.0991699
0.7900000,0.7900000,0.7900000,-0.0437033,-0.0030077,-0.4231256,-0.0437033,-0.0400874,-0.0972097
0.7925000,0.7925000,0.7925000,-0.0428614,-0.0029802,-0.4190409,-0.0428614,-0.0393670,-0.0952936
0.7950000,0.7950000,0.7950000,-0.0420384,-0.0029530,-0.4150088,-0.0420384,-0.0386623,-0.0934206
0.7975000,0.7975000,0.7975000,-0.0412337,-0.0029261,-0.4110285,-0.0412337,-0.0379728,-0.0915895
0.8000000,0.8000000,0.8000000,-0.0404469,-0.0028995,-0.4070991,-0.0404469,-0.0372983,-0.0897993
0.8025000,0.8025000,0.8025000,-0.0396777,-0.0028733,-0.4032199,-0.0396777,-0.0366383,-0.0880490
0.8050000,0.8050000,0.8050000,-0.0389254,-0.0028473,-0.3993901,-0.0389254,-0.0359924,-0.0863376
0.8075000,0.8075000,0.8075000,-0.0381897,-0.0028217,-0.3956088,-0.0381897,-0.0353604,-0.0846641
0.8100000,0.8100000,0.8100000,-0.0374702,-0.0027963,-0.3918753,-0.0374702,-0.0347418,-0.0830275
0.8125000,0.8125000,0.8125000,-0.0367665,-0.0027713,-0.3881889,-0.0367665,-0.0341364,-0.0814270
0.8150000,0.8150000,0.8150000,-0.0360782,-0.0027466,-0.3845488,-0.0360782,-0.0335438,-0.0798617
0.8175000,0.8175000,0.8175000,-0.0354049,-0.0027221,-0.3809542,-0.0354049,-0.0329637,-0.0783306
0.8200000,0.8200000,0.8200000,-0.0347462,-0.0026979,-0.3774045,-0.0347462,-0.0323958,-0.0768330
0.8225000,0.8225000,0.8225000,-0.0341018,-0.0026740,-0.3738989,-0.0341018,-0.0318398,-0.0753680
0.8250000,0.8250000,0.8250000,-0.0334712,-0.0026504,-0.3704369,-0.0334712,-0.0312954,-0.0739348
0.8275000,0.8275000,0.8275000,-0.0328543,-0.0026270,-0.3670176,-0.0328543,-0.0307624,-0.0725327
0.8300000,0.8300000,0.8300000,-0.0322506,-0.0026039,-0.3636405,-0.0322506,-0.0302403,-0.0711609
0.8325000,0.8325000,0.8325000,-0.0316598,-0.0025811,-0.3603048,-0.0316598,-0.0297291,-0.0698186
0.8350000,0.8350000,0.8350000,-0.0310816,-0.0025586,-0.3570100,-0.0310816,-0.0292285,-0.0685052
0.8375000,0.8375000,0.8375000,-0.0305157,-0.0025363,-0.3537554,-0.0305157,-0.0287380,-0.0672200
0.8400000,0.8400000,0.8400000,-0.0299619,-0.0025142,-0.3505405,-0.0299619,-0.0282577,-0.0659621
0.8425000,0.8425000,0.8425000,-0.0294197,-0.0024924,-0.3473645,-0.0294197,-0.0277871,-0.0647311
0.8450000,0.8450000,0.8450000,-0.0288889,-0.0024709,-0.3442270,-0.0288889,-0.0273261,-0.0635263
0.8475000,0.8475000,0.8475000,-0.0283693,-0.0024496,-0.3411273,-0.0283693,-0.0268744,-0.0623470
0.8500000,0.8500000,0.8500000,-0.0278606,-0.0024285,-0.3380648,-0.0278606,-0.0264319,-0.0611926
0.8525000,0.8525000,0.8525000,-0.0273625,-0.0024077,-0.3350391,-0.0273625,-0.0259982,-0.0600626
0.8550000,0.8550000,0.8550000,-0.0268748,-0.0023871,-0.3320495,-0.0268748,-0.0255733,-0.0589563
0.8575000,0.8575000,0.8575000,-0.0263972,-0.0023667,-0.3290956,-0.0263972,-0.0251568,-0.0578732
0.8600000,0.8600000,0.8600000,-0.0259295,-0.0023466,-0.3261767,-0.0259295,-0.0247487,-0.0568127
0.8625000,0.8625000,0.8625000,-0.0254715,-0.0023267,-0.3232924,-0.0254715,-0.0243486,-0.0557744
0.8650000,0.8650000,0.8650000,-0.0250229,-0.0023070,-0.3204421,-0.0250229,-0.0239565,-0.0547576
0.8675000,0.8675000,0.8675000,-0.0245835,-0.0022875,-0.3176254,-0.0245835,-0.0235721,-0.0537620
0.8700000,0.8700000,0.8700000,-0.0241531,-0.0022683,-0.3148418,-0.0241531,-0.0231952,-0.0527869
0.8725000,0.8725000,0.8725000,-0.0237314,-0.0022492,-0.3120907,-0.0237314,-0.0228258,-0.0518320
0.8750000,0.8750000,0.8750000,-0.0233184,-0.0022304,-0.3093717,-0.0233184,-0.0224635,-0.0508967
0.8775000,0.8775000,0.8775000,-0.0229137,-0.0022118,-0.3066843,-0.0229137,-0.0221083,-0.0499806
0.8800000,0.8800000,0.8800000,-0.0225172,-0.0021934,-0.3040281,-0.0225172,-0.0217600,-0.0490832
0.8825000,0.8825000,0.8825000,-0.0221287,-0.0021751,-0.3014027,-0.0221287,-0.0214185,-0.0482041
0.8850000,0.8850000,0.8850000,-0.0217480,-0.0021571,-0.2988074,-0.0217480,-0.0210835,-0.0473430
0.8875000,0.8875000,0.8875000,-0.0213750,-0.0021393,-0.2962421,-0.0213750,-0.0207549,-0.0464993
0.8900000,0.8900000,0.8900000,-0.0210094,-0.0021217,-0.2937061,-0.0210094,-0.0204327,-0.0456727
0.8925000,0.8925000,0.8925000,-0.0206510,-0.0021042,-0.2911991,-0.0206510,-0.0201166,-0.0448628
0.8950000,0.8950000,0.8950000,-0.0202999,-0.0020870,-0.2887206,-0.0202999,-0.0198065,-0.0440693
0.8975000,0.8975000,0.8975000,-0.0199556,-0.0020699,-0.2862704,-0.0199556,-0.0195023,-0.0432916
0.9000000,0.9000000,0.9000000,-0.0196182,-0.0020530,-0.2838479,-0.0196182,-0.0192038,-0.0425296
0.9025000,0.9025000,0.9025000,-0.0192874,-0.0020363,-0.2814527,-0.0192874,-0.0189110,-0.0417827
0.9050000,0.9050000,0.9050000,-0.0189632,-0.0020198,-0.2790845,-0.0189632,-0.0186237,-0.0410508
0.9075000,0.9075000,0.9075000,-0.0186453,-0.0020035,-0.2767430,-0.0186453,-0.0183417,-0.0403334
0.9100000,0.9100000,0.9100000,-0.0183336,-0.0019873,-0.2744277,-0.0183336,-0.0180651,-0.0396302
0.9125000,0.9125000,0.9125000,-0.0180279,-0.0019713,-0.2721382,-0.0180279,-0.0177935,-0.0389410
0.9150000,0.9150000,0.9150000,-0.0177282,-0.0019555,-0.2698742,-0.0177282,-0.0175270,-0.0382653
0.9175000,0.9175000,0.9175000,-0.0174344,-0.0019398,-0.2676354,-0.0174344,-0.0172654,-0.0376030
0.9200000,0.9200000,0.9200000,-0.0171462,-0.0019243,-0.2654213,-0.0171462,-0.0170087,-0.0369536
0.9225000,0.9225000,0.9225000,-0.0168635,-0.0019090,-0.2632317,-0.0168635,-0.0167566,-0.0363170
0.9250000,0.9250000,0.9250000,-0.0165863,-0.0018938,-0.2610662,-0.0165863,-0.0165092,-0.0356927
0.9275000,0.9275000,0.9275000,-0.0163144,-0.0018788,-0.2589246,-0.0163144,-0.0162663,-0.0350807
0.9300000,0.9300000,0.9300000,-0.0160477,-0.0018639,-0.2568063,-0.0160477,-0.0160278,-0.0344805
0.9325000,0.9325000,0.9325000,-0.0157861,-0.0018492,-0.2547112,-0.0157861,-0.0157937,-0.0338920
0.9350000,0.9350000,0.9350000,-0.0155294,-0.0018347,-0.2526389,-0.0155294,-0.0155637,-0.0333148
0.9375000,0.9375000,0.9375000,-0.0152776,-0.0018203,-0.2505891,-0.0152776,-0.0153380,-0.0327488
0.9400000,0.9400000,0.9400000,-0.0150306,-0.0018060,-0.2485615,-0.0150306,-0.0151162,-0.0321936
0.9425000,0.9425000,0.9425000,-0.0147882,-0.0017919,-0.2465558,-0.0147882,-0.0148985,-0.0316491
0.9450000,0.9450000,0.9450000,-0.0145504,-0.0017780,-0.2445717,-0.0145504,-0.0146846,-0.0311150
0.9475000,0.9475000,0.9475000,-0.0143171,-0.0017642,-0.2426090,-0.0143171,-0.0144745,-0.0305911
0.9500000,0.9500000,0.9500000,-0.0140881,-0.0017505,-0.2406672,-0.0140881,-0.0142682,-0.0300772
0.9525000,0.9525000,0.9525000,-0.0138634,-0.0017370,-0.2387462,-0.0138634,-0.0140655,-0.0295731
0.9550000,0.9550000,0.9550000,-0.0136428,-0.0017236,-0.2368457,-0.0136428,-0.0138664,-0.0290785
0.9575000,0.9575000,0.9575000,-0.0134264,-0.0017103,-0.2349653,-0.0134264,-0.0136708,-0.0285932
0.9600000,0.9600000,0.9600000,-0.0132139,-0.0016972,-0.2331049,-0.0132139,-0.0134786,-0.0281171
0.9625000,0.9625000,0.9625000,-0.0130054,-0.0016842,-0.2312642,-0.0130054,-0.0132898,-0.0276500
0.9650000,0.9650000,0.9650000,-0.0128007,-0.0016713,-0.2294428,-0.0128007,-0.0131043,-0.0271916
0.9675000,0.9675000,0.9675000,-0.0125998,-0.0016586,-0.2276406,-0.0125998,-0.0129220,-0.0267418
0.9700000,0.9700000,0.9700000,-0.0124025,-0.0016460,-0.2258573,-0.0124025,-0.0127428,-0.0263004
0.9725000,0.9725000,0.9725000,-0.0122089,-0.0016335,-0.2240926,-0.0122089,-0.0125668,-0.0258672
0.9750000,0.9750000,0.9750000,-0.0120187,-0.0016212,-0.2223463,-0.0120187,-0.0123937,-0.0254421
0.9775000,0.9775000,0.9775000,-0.0118321,-0.0016089,-0.2206182,-0.0118321,-0.0122237,-0.0250248
0.9800000,0.9800000,0.9800000,-0.0116488,-0.0015968,-0.2189081,-0.0116488,-0.0120565,-0.0246153
0.9825000,0.9825000,0.9825000,-0.0114688,-0.0015849,-0.2172156,-0.0114688,-0.0118922,-0.0242133
0.9850000,0.9850000,0.9850000,-0.0112921,-0.0015730,-0.2155406,-0.0112921,-0.0117307,-0.0238187
0.9875000,0.9875000,0.9875000,-0.0111185,-0.0015612,-0.2138828,-0.0111185,-0.0115719,-0.0234314
0.9900000,0.9900000,0.9900000,-0.0109480,-0.0015496,-0.2122420,-0.0109480,-0.0114159,-0.0230512
0.9925000,0.9925000,0.9925000,-0.0107806,-0.0015381,-0.2106181,-0.0107806,-0.0112624,-0.0226779
0.9950000,0.9950000,0.9950000,-0.0106162,-0.0015267,-0.2090107,-0.0106162,-0.0111115,-0.0223114
0.9975000,0.9975000,0.9975000,-0.0104547,-0.0015154,-0.2074197,-0.0104547,-0.0109632,-0.0219516
1.0000000,1.0000000,1.0000000,-0.0102961,-0.0015042,-0.2058448,-0.0102961,-0.0108173,-0.0215983
1.0025000,1.0025000,1.0025000,-0.0101403,-0.0014931,-0.2042860,-0.0101403,-0.0106738,-0.0212514
1.0050000,1.0050000,1.0050000,-0.0099872,-0.0014822,-0.2027428,-0.0099872,-0.0105328,-0.0209107
1.0075000,1.0075000,1.0075000,-0.0098368,-0.0014713,-0.2012152,-0.0098368,-0.0103940,-0.0205762
1.0100000,1.0100000,1.0100000,-0.0096891,-0.0014606,-0.1997030,-0.0096891,-0.0102576,-0.0202478
1.0125000,1.0125000,1.0125000,-0.0095439,-0.0014499,-0.1982060,-0.0095439,-0.0101234,-0.0199252
1.0150000,1.0150000,1.0150000,-0.0094013,-0.0014394,-0.1967239,-0.0094013,-0.0099914,-0.0196083
1.0175000,1.0175000,1.0175000,-0.0092612,-0.0014289,-0.1952566,-0.0092612,-0.0098615,-0.0192972
1.0200000,1.0200000,1.0200000,-0.0091235,-0.0014186,-0.1938040,-0.0091235,-0.0097338,-0.0189916
1.0225000,1.0225000,1.0225000,-0.0089882,-0.0014083,-0.1923657,-0.0089882,-0.0096082,-0.0186914
1.0250000,1.0250000,1.0250000,-0.0088552,-0.0013982,-0.1909417,-0.0088552,-0.0094845,-0.0183965
1.0275000,1.0275000,1.0275000,-0.0087246,-0.0013881,-0.1895318,-0.0087246,-0.0093629,-0.0181069
1.0300000,1.0300000,1.0300000,-0.0085961,-0.0013782,-0.1881357,-0.0085961,-0.0092433,-0.0178223
1.0325000,1.0325000,1.0325000,-0.0084699,-0.0013683,-0.1867534,-0.0084699,-0.0091255,-0.0175428
1.0350000,1.0350000,1.0350000,-0.0083459,-0.0013586,-0.1853846,-0.0083459,-0.0090097,-0.0172682
1.0375000,1.0375000,1.0375000,-0.0082239,-0.0013489,-0.1840293,-0.0082239,-0.0088957,-0.0169984
1.0400000,1.0400000,1.0400000,-0.0081041,-0.0013393,-0.1826871,-0.0081041,-0.0087835,-0.0167333
1.0425000,1.0425000,1.0425000,-0.0079862,-0.0013298,-0.1813580,-0.0079862,-0.0086731,-0.0164728
1.0450000,1.0450000,1.0450000,-0.0078704,-0.0013204,-0.1800418,-0.0078704,-0.0085644,-0.0162169
1.0475000,1.0475000,1.0475000,-0.0077565,-0.0013111,-0.1787384,-0.0077565,-0.0084575,-0.0159655
1.0500000,1.0500000,1.0500000,-0.0076446,-0.0013018,-0.1774475,-0.0076446,-0.0083522,-0.0157184
1.0525000,1.0525000,1.0525000,-0.0075345,-0.0012927,-0.1761691,-0.0075345,-0.0082486,-0.0154755
1.0550000,1.0550000,1.0550000,-0.0074263,-0.0012836,-0.1749030,-0.0074263,-0.0081466,-0.0152369
1.0575000,1.0575000,1.0575000,-0.0073199,-0.0012747,-0.1736490,-0.0073199,-0.0080462,-0.0150023
1.0600000,1.0600000,1.0600000,-0.0072153,-0.0012658,-0.1724070,-0.0072153,-0.0079474,-0.0147718
1.0625000,1.0625000,1.0625000,-0.0071124,-0.0012570,-0.1711769,-0.0071124,-0.0078501,-0.0145453
1.0650000,1.0650000,1.0650000,-0.0070113,-0.0012482,-0.1699585,-0.0070113,-0.0077543,-0.0143226
1.0675000,1.0675000,1.0675000,-0.0069118,-0.0012396,-0.1687516,-0.0069118,-0.0076600,-0.0141038
1.0700000,1.0700000,1.0700000,-0.0068139,-0.0012310,-0.1675562,-0.0068139,-0.0075671,-0.0138886
1.0725000,1.0725000,1.0725000,-0.0067177,-0.0012225,-0.1663721,-0.0067177,-0.0074757,-0.0136771
1.0750000,1.0750000,1.0750000,-0.0066231,-0.0012141,-0.1651991,-0.0066231,-0.0073856,-0.0134692
1.0775000,1.0775000,1.0775000,-0.0065300,-0.0012058,-0.1640372,-0.0065300,-0.0072970,-0.0132649
1.0800000,1.0800000,1.0800000,-0.0064384,-0.0011975,-0.1628862,-0.0064384,-0.0072097,-0.0130639
1.0825000,1.0825000,1.0825000,-0.0063483,-0.0011893,-0.1617460,-0.0063483,-0.0071237,-0.0128664
1.0850000,1.0850000,1.0850000,-0.0062598,-0.0011812,-0.1606164,-0.0062598,-0.0070390,-0.0126722
1.0875000,1.0875000,1.0875000,-0.0061726,-0.0011732,-0.1594973,-0.0061726,-0.0069555,-0.0124812
1.0900000,1.0900000,1.0900000,-0.0060869,-0.0011652,-0.1583887,-0.0060869,-0.0068734,-0.0122935
1.0925000,1.0925000,1.0925000,-0.0060025,-0.0011573,-0.1572903,-0.0060025,-0.0067924,-0.0121089
1.0950000,1.0950000,1.0950000,-0.0059195,-0.0011495,-0.1562021,-0.0059195,-0.0067127,-0.0119273
1.0975000,1.0975000,1.0975000,-0.0058379,-0.0011418,-0.1551239,-0.0058379,-0.0066342,-0.0117488
1.1000000,1.1000000,1.1000000,-0.0057575,-0.0011341,-0.1540557,-0.0057575,-0.0065568,-0.0115733
1.1025000,1.1025000,1.1025000,-0.0056785,-0.0011265,-0.1529973,-0.0056785,-0.0064806,-0.0114007
1.1050000,1.1050000,1.1050000,-0.0056007,-0.0011189,-0.1519486,-0.0056007,-0.0064055,-0.0112309
1.1075000,1.1075000,1.1075000,-0.0055242,-0.0011114,-0.1509094,-0.0055242,-0.0063315,-0.0110639
1.1100000,1.1100000,1.1100000,-0.0054489,-0.0011040,-0.1498798,-0.0054489,-0.0062586,-0.0108997
1.1125000,1.1125000,1.1125000,-0.0053747,-0.0010967,-0.1488595,-0.0053747,-0.0061868,-0.0107382
1.1150000,1.1150000,1.1150000,-0.0053018,-0.0010894,-0.1478485,-0.0053018,-0.0061160,-0.0105793
1.1175000,1.1175000,1.1175000,-0.0052300,-0.0010822,-0.1468467,-0.0052300,-0.0060462,-0.0104230
1.1200000,1.1200000,1.1200000,-0.0051594,-0.0010750,-0.1458539,-0.0051594,-0.0059775,-0.0102693
1.1225000,1.1225000,1.1225000,-0.0050898,-0.0010679,-0.1448701,-0.0050898,-0.0059097,-0.0101181
1.1250000,1.1250000,1.1250000,-0.0050214,-0.0010609,-0.1438951,-0.0050214,-0.0058430,-0.0099693
1.1275000,1.1275000,1.1275000,-0.0049540,-0.0010539,-0.1429288,-0.0049540,-0.0057772,-0.0098230
1.1300000,1.1300000,1.1300000,-0.0048877,-0.0010470,-0.1419713,-0.0048877,-0.0057123,-0.0096790
1.1325000,1.1325000,1.1325000,-0.0048224,-0.0010402,-0.1410223,-0.0048224,-0.0056484,-0.0095374
1.1350000,1.1350000,1.1350000,-0.0047581,-0.0010334,-0.1400817,-0.0047581,-0.0055854,-0.0093981
1.1375000,1.1375000,1.1375000,-0.0046949,-0.0010266,-0.1391495,-0.0046949,-0.0055233,-0.0092610
1.1400000,1.1400000,1.1400000,-0.0046326,-0.0010200,-0.1382256,-0.0046326,-0.0054621,-0.0091261
1.1425000,1.1425000,1.1425000,-0.0045712,-0.0010133,-0.1373099,-0.0045712,-0.0054017,-0.0089933
1.1450000,1.1450000,1.1450000,-0.0045109,-0.0010068,-0.1364023,-0.0045109,-0.0053422,-0.0088627
1.1475000,1.1475000,1.1475000,-0.0044514,-0.0010003,-0.1355027,-0.0044514,-0.0052835,-0.0087342
1.1500000,1.1500000,1.1500000,-0.0043929,-0.0009938,-0.1346110,-0.0043929,-0.0052257,-0.0086078
1.1525000,1.1525000,1.1525000,-0.0043352,-0.0009874,-0.1337271,-0.0043352,-0.0051686,-0.0084833
1.1550000,1.1550000,1.1550000,-0.0042785,-0.0009811,-0.1328509,-0.0042785,-0.0051124,-0.0083609
1.1575000,1.1575000,1.1575000,-0.0042226,-0.0009748,-0.1319825,-0.0042226,-0.0050570,-0.0082403
1.1600000,1.1600000,1.1600000,-0.0041676,-0.0009686,-0.1311216,-0.0041676,-0.0050023,-0.0081217
1.1625000,1.1625000,1.1625000,-0.0041134,-0.0009624,-0.1302681,-0.0041134,-0.0049484,-0.0080050
1.1650000,1.1650000,1.1650000,-0.0040600,-0.0009563,-0.1294221,-0.0040600,-0.0048952,-0.0078901
1.1675000,1.1675000,1.1675000,-0.0040074,-0.0009502,-0.1285835,-0.0040074,-0.0048427,-0.0077770
1.1700000,1.1700000,1.1700000,-0.0039556,-0.0009442,-0.1277520,-0.0039556,-0.0047910,-0.0076657
1.1725000,1.1725000,1.1725000,-0.0039046,-0.0009382,-0.1269278,-0.0039046,-0.0047400,-0.0075561
1.1750000,1.1750000,1.1750000,-0.0038544,-0.0009323,-0.1261106,-0.0038544,-0.0046897,-0.0074483
1.1775000,1.1775000,1.1775000,-0.0038049,-0.0009264,-0.1253005,-0.0038049,-0.0046401,-0.0073421
1.1800000,1.1800000,1.1800000,-0.0037562,-0.0009206,-0.1244973,-0.0037562,-0.0045911,-0.0072376
1.1825000,1.1825000,1.1825000,-0.0037082,-0.0009148,-0.1237010,-0.0037082,-0.0045429,-0.0071347
1.1850000,1.1850000,1.1850000,-0.0036609,-0.0009091,-0.1229114,-0.0036609,-0.0044952,-0.0070334
1.1875000,1.1875000,1.1875000,-0.0036143,-0.0009034,-0.1221286,-0.0036143,-0.0044482,-0.0069337
1.1900000,1.1900000,1.1900000,-0.0035684,-0.0008978,-0.1213524,-0.0035684,-0.0044019,-0.0068355
1.1925000,1.1925000,1.1925000,-0.0035232,-0.0008922,-0.1205829,-0.0035232,-0.0043561,-0.0067389
1.1950000,1.1950000,1.1950000,-0.0034787,-0.0008867,-0.1198198,-0.0034787,-0.0043110,-0.0066437
1.1975000,1.1975000,1.1975000,-0.0034348,-0.0008812,-0.1190632,-0.0034348,-0.0042665,-0.0065500
1.2000000,1.2000000,1.2000000,-0.0033915,-0.0008757,-0.1183129,-0.0033915,-0.0042226,-0.0064578
1.2025000,1.2025000,1.2025000,-0.0033489,-0.0008703,-0.1175689,-0.0033489,-0.0041793,-0.0063669
1.2050000,1.2050000,1.2050000,-0.0033069,-0.0008650,-0.1168312,-0.0033069,-0.0041365,-0.0062775
1.2075000,1.2075000,1.2075000,-0.0032656,-0.0008597,-0.1160997,-0.0032656,-0.0040943,-0.0061894
1.2100000,1.2100000,1.2100000,-0.0032248,-0.0008544,-0.1153743,-0.0032248,-0.0040526,-0.0061027
1.2125000,1.2125000,1.2125000,-0.0031846,-0.0008492,-0.1146549,-0.0031846,-0.0040116,-0.0060172
1.2150000,1.2150000,1.2150000,-0.0031450,-0.0008440,-0.1139415,-0.0031450,-0.0039710,-0.0059331
1.2175000,1.2175000,1.2175000,-0.0031060,-0.0008388,-0.1132340,-0.0031060,-0.0039310,-0.0058503
1.2200000,1.2200000,1.2200000,-0.0030675,-0.0008337,-0.1125324,-0.0030675,-0.0038915,-0.0057687
1.2225000,1.2225000,1.2225000,-0.0030296,-0.0008287,-0.1118366,-0.0030296,-0.0038525,-0.0056884
1.2250000,1.2250000,1.2250000,-0.0029923,-0.0008237,-0.1111465,-0.0029923,-0.0038140,-0.0056092
1.2275000,1.2275000,1.2275000,-0.0029555,-0.0008187,-0.1104621,-0.0029555,-0.0037760,-0.0055313
1.2300000,1.2300000,1.2300000,-0.0029192,-0.0008137,-0.1097833,-0.0029192,-0.0037385,-0.0054545
1.2325000,1.2325000,1.2325000,-0.0028834,-0.0008088,-0.1091101,-0.0028834,-0.0037015,-0.0053789
1.2350000,1.2350000,1.2350000,-0.0028482,-0.0008040,-0.1084424,-0.0028482,-0.0036650,-0.0053044
1.2375000,1.2375000,1.2375000,-0.0028134,-0.0007992,-0.1077801,-0.0028134,-0.0036289,-0.0052310
1.2400000,1.2400000,1.2400000,-0.0027792,-0.0007944,-0.1071232,-0.0027792,-0.0035933,-0.0051588
1.2425000,1.2425000,1.2425000,-0.0027454,-0.0007896,-0.1064717,-0.0027454,-0.0035581,-0.0050876
1.2450000,1.2450000,1.2450000,-0.0027121,-0.0007849,-0.1058255,-0.0027121,-0.0035234,-0.0050174
1.2475000,1.2475000,1.2475000,-0.0026793,-0.0007802,-0.1051845,-0.0026793,-0.0034892,-0.0049483
1.2500000,1.2500000,1.2500000,-0.0026469,-0.0007756,-0.1045486,-0.0026469,-0.0034553,-0.0048803
1.2525000,1.2525000,1.2525000,-0.0026150,-0.0007710,-0.1039179,-0.0026150,-0.0034219,-0.0048132
1.2550000,1.2550000,1.2550000,-0.0025836,-0.0007664,-0.1032923,-0.0025836,-0.0033889,-0.0047471
1.2575000,1.2575000,1.2575000,-0.0025525,-0.0007619,-0.1026717,-0.0025525,-0.0033564,-0.0046820
1.2600000,1.2600000,1.2600000,-0.0025220,-0.0007574,-0.1020561,-0.0025220,-0.0033242,-0.0046179
1.2625000,1.2625000,1.2625000,-0.0024918,-0.0007530,-0.1014454,-0.0024918,-0.0032924,-0.0045547
1.2650000,1.2650000,1.2650000,-0.0024621,-0.0007486,-0.1008395,-0.0024621,-0.0032611,-0.0044925
1.2675000,1.2675000,1.2675000,-0.0024328,-0.0007442,-0.1002385,-0.0024328,-0.0032301,-0.0044311
1.2700000,1.2700000,1.2700000,-0.0024038,-0.0007398,-0.0996423,-0.0024038,-0.0031995,-0.0043707
1.2725000,1.2725000,1.2725000,-0.0023753,-0.0007355,-0.0990508,-0.0023753,-0.0031693,-0.0043111
1.2750000,1.2750000,1.2750000,-0.0023472,-0.0007312,-0.0984640,-0.0023472,-0.0031394,-0.0042524
1.2775000,1.2775000,1.2775000,-0.0023195,-0.0007270,-0.0978818,-0.0023195,-0.0031099,-0.0041946
1.2800000,1.2800000,1.2800000,-0.0022921,-0.0007227,-0.0973042,-0.0022921,-0.0030808,-0.0041376
1.2825000,1.2825000,1.2825000,-0.0022652,-0.0007186,-0.0967311,-0.0022652,-0.0030521,-0.0040814
1.2850000,1.2850000,1.2850000,-0.0022386,-0.0007144,-0.0961626,-0.0022386,-0.0030237,-0.0040260
1.2875000,1.2875000,1.2875000,-0.0022123,-0.0007103,-0.0955985,-0.0022123,-0.0029956,-0.0039715
1.2900000,1.2900000,1.2900000,-0.0021865,-0.0007062,-0.0950388,-0.0021865,-0.0029679,-0.0039177
1.2925000,1.2925000,1.2925000,-0.0021609,-0.0007021,-0.0944835,-0.0021609,-0.0029405,-0.0038647
1.2950000,1.2950000,1.2950000,-0.0021358,-0.0006981,-0.0939325,-0.0021358,-0.0029134,-0.0038125
1.2975000,1.2975000,1.2975000,-0.0021109,-0.0006941,-0.0933858,-0.0021109,-0.0028867,-0.0037610
1.3000000,1.3000000,1.3000000,-0.0020864,-0.0006901,-0.0928434,-0.0020864,-0.0028603,-0.0037103
1.3025000,1.3025000,1.3025000,-0.0020623,-0.0006862,-0.0923051,-0.0020623,-0.0028342,-0.0036603
1.3050000,1.3050000,1.3050000,-0.0020384,-0.0006823,-0.0917711,-0.0020384,-0.0028084,-0.0036110
1.3075000,1.3075000,1.3075000,-0.0020149,-0.0006784,-0.0912411,-0.0020149,-0.0027829,-0.0035624
1.3100000,1.3100000,1.3100000,-0.0019917,-0.0006746,-0.0907152,-0.0019917,-0.0027578,-0.0035145
1.3125000,1.3125000,1.3125000,-0.0019688,-0.0006708,-0.0901934,-0.0019688,-0.0027329,-0.0034673
1.3150000,1.3150000,1.3150000,-0.0019462,-0.0006670,-0.0896755,-0.0019462,-0.0027083,-0.0034207
1.3175000,1.3175000,1.3175000,-0.0019239,-0.0006632,-0.0891617,-0.0019239,-0.0026840,-0.0033748
1.3200000,1.3200000,1.3200000,-0.0019020,-0.0006595,-0.0886517,-0.0019020,-0.0026600,-0.0033296
1.3225000,1.3225000,1.3225000,-0.0018803,-0.0006558,-0.0881457,-0.0018803,-0.0026363,-0.0032850
1.3250000,1.3250000,1.3250000,-0.0018589,-0.0006521,-0.0876435,-0.0018589,-0.0026129,-0.0032411
1.3275000,1.3275000,1.3275000,-0.0018377,-0.0006484,-0.0871451,-0.0018377,-0.0025897,-0.0031977
1.3300000,1.3300000,1.3300000,-0.0018169,-0.0006448,-0.0866505,-0.0018169,-0.0025668,-0.0031550
1.3325000,1.3325000,1.3325000,-0.0017963,-0.0006412,-0.0861596,-0.0017963,-0.0025442,-0.0031129
1.3350000,1.3350000,1.3350000,-0.0017761,-0.0006376,-0.0856724,-0.0017761,-0.0025218,-0.0030713
1.3375000,1.3375000,1.3375000,-0.0017560,-0.0006341,-0.0851889,-0.0017560,-0.0024997,-0.0030304
1.3400000,1.3400000,1.3400000,-0.0017363,-0.0006306,-0.0847091,-0.0017363,-0.0024778,-0.0029900
1.3425000,1.3425000,1.3425000,-0.0017168,-0.0006271,-0.0842329,-0.0017168,-0.0024562,-0.0029502
1.3450000,1.3450000,1.3450000,-0.0016975,-0.0006236,-0.0837602,-0.0016975,-0.0024349,-0.0029109
1.3475000,1.3475000,1.3475000,-0.0016785,-0.0006202,-0.0832911,-0.0016785,-0.0024138,-0.0028722
1.3500000,1.3500000,1.3500000,-0.0016598,-0.0006168,-0.0828254,-0.0016598,-0.0023929,-0.0028340
1.3525000,1.3525000,1.3525000,-0.0016413,-0.0006134,-0.0823633,-0.0016413,-0.0023723,-0.0027964
1.3550000,1.3550000,1.3550000,-0.0016230,-0.0006100,-0.0819046,-0.0016230,-0.0023519,-0.0027593
1.3575000,1.3575000,1.3575000,-0.0016050,-0.0006067,-0.0814492,-0.0016050,-0.0023317,-0.0027227
1.3600000,1.3600000,1.3600000,-0.0015872,-0.0006033,-0.0809973,-0.0015872,-0.0023118,-0.0026866
1.3625000,1.3625000,1.3625000,-0.0015696,-0.0006001,-0.0805487,-0.0015696,-0.0022921,-0.0026510
1.3650000,1.3650000,1.3650000,-0.0015523,-0.0005968,-0.0801034,-0.0015523,-0.0022726,-0.0026159
1.3675000,1.3675000,1.3675000,-0.0015352,-0.0005935,-0.0796614,-0.0015352,-0.0022533,-0.0025813
1.3700000,1.3700000,1.3700000,-0.0015183,-0.0005903,-0.0792227,-0.0015183,-0.0022343,-0.0025471
1.3725000,1.3725000,1.3725000,-0.0015016,-0.0005871,-0.0787872,-0.0015016,-0.0022154,-0.0025135
1.3750000,1.3750000,1.3750000,-0.0014852,-0.0005839,-0.0783548,-0.0014852,-0.0021968,-0.0024803
1.3775000,1.3775000,1.3775000,-0.0014689,-0.0005808,-0.0779257,-0.0014689,-0.0021784,-0.0024475
1.3800000,1.3800000,1.3800000,-0.0014529,-0.0005777,-0.0774996,-0.0014529,-0.0021601,-0.0024152
1.3825000,1.3825000,1.3825000,-0.0014370,-0.0005746,-0.0770767,-0.0014370,-0.0021421,-0.0023833
1.3850000,1.3850000,1.3850000,-0.0014214,-0.0005715,-0.0766569,-0.0014214,-0.0021243,-0.0023519
1.3875000,1.3875000,1.3875000,-0.0014059,-0.0005684,-0.0762401,-0.0014059,-0.0021067,-0.0023209
1.3900000,1.3900000,1.3900000,-0.0013907,-0.0005654,-0.0758263,-0.0013907,-0.0020893,-0.0022903
1.3925000,1.3925000,1.3925000,-0.0013757,-0.0005623,-0.0754155,-0.0013757,-0.0020720,-0.0022602
1.3950000,1.3950000,1.3950000,-0.0013608,-0.0005593,-0.0750077,-0.0013608,-0.0020550,-0.0022304
1.3975000,1.3975000,1.3975000,-0.0013461,-0.0005564,-0.0746028,-0.0013461,-0.0020381,-0.0022010
1.4000000,1.4000000,1.4000000,-0.0013316,-0.0005534,-0.0742009,-0.0013316,-0.0020214,-0.0021721
1.4025000,1.4025000,1.4025000,-0.0013173,-0.0005505,-0.0738018,-0.0013173,-0.0020049,-0.0021435
1.4050000,1.4050000,1.4050000,-0.0013032,-0.0005476,-0.0734056,-0.0013032,-0.0019886,-0.0021154
1.4075000,1.4075000,1.4075000,-0.0012892,-0.0005447,-0.0730122,-0.0012892,-0.0019725,-0.0020876
1.4100000,1.4100000,1.4100000,-0.0012755,-0.0005418,-0.0726216,-0.0012755,-0.0019565,-0.0020601
1.4125000,1.4125000,1.4125000,-0.0012619,-0.0005389,-0.0722339,-0.0012619,-0.0019407,-0.0020331
1.4150000,1.4150000,1.4150000,-0.0012484,-0.0005361,-0.0718488,-0.0012484,-0.0019251,-0.0020064
1.4175000,1.4175000,1.4175000,-0.0012351,-0.0005333,-0.0714666,-0.0012351,-0.0019096,-0.0019801
1.4200000,1.4200000,1.4200000,-0.0012220,-0.0005305,-0.0710870,-0.0012220,-0.0018943,-0.0019541
1.4225000,1.4225000,1.4225000,-0.0012091,-0.0005277,-0.0707101,-0.0012091,-0.0018792,-0.0019285
1.4250000,1.4250000,1.4250000,-0.0011963,-0.0005250,-0.0703359,-0.0011963,-0.0018642,-0.0019032
1.4275000,1.4275000,1.4275000,-0.0011837,-0.0005222,-0.0699643,-0.0011837,-0.0018494,-0.0018782
1.4300000,1.4300000,1.4300000,-0.0011712,-0.0005195,-0.0695954,-0.0011712,-0.0018348,-0.0018536
1.4325000,1.4325000,1.4325000,-0.0011589,-0.0005168,-0.0692290,-0.0011589,-0.0018203,-0.0018293
1.4350000,1.4350000,1.4350000,-0.0011467,-0.0005141,-0.0688652,-0.0011467,-0.0018059,-0.0018053
1.4375000,1.4375000,1.4375000,-0.0011347,-0.0005115,-0.0685040,-0.0011347,-0.0017917,-0.0017817
1.4400000,1.4400000,1.4400000,-0.0011228,-0.0005088,-0.0681453,-0.0011228,-0.0017777,-0.0017584
1.4425000,1.4425000,1.4425000,-0.0011111,-0.0005062,-0.0677890,-0.0011111,-0.0017638,-0.0017353
1.4450000,1.4450000,1.4450000,-0.0010995,-0.0005036,-0.0674353,-0.0010995,-0.0017500,-0.0017126
1.4475000,1.4475000,1.4475000,-0.0010881,-0.0005010,-0.0670841,-0.0010881,-0.0017364,-0.0016902
1.4500000,1.4500000,1.4500000,-0.0010768,-0.0004984,-0.0667352,-0.0010768,-0.0017229,-0.0016681
1.4525000,1.4525000,1.4525000,-0.0010656,-0.0004959,-0.0663888,-0.0010656,-0.0017096,-0.0016462
1.4550000,1.4550000,1.4550000,-0.0010546,-0.0004933,-0.0660448,-0.0010546,-0.0016964,-0.0016247
1.4575000,1.4575000,1.4575000,-0.0010437,-0.0004908,-0.0657032,-0.0010437,-0.0016834,-0.0016034
1.4600000,1.4600000,1.4600000,-0.0010329,-0.0004883,-0.0653639,-0.0010329,-0.0016704,-0.0015824
1.4625000,1.4625000,1.4625000,-0.0010223,-0.0004858,-0.0650269,-0.0010223,-0.0016576,-0.0015617
1.4650000,1.4650000,1.4650000,-0.0010118,-0.0004834,-0.0646923,-0.0010118,-0.0016450,-0.0015413
1.4675000,1.4675000,1.4675000,-0.0010014,-0.0004809,-0.0643600,-0.0010014,-0.0016324,-0.0015211
1.4700000,1.4700000,1.4700000,-0.0009911,-0.0004785,-0.0640299,-0.0009911,-0.0016200,-0.0015012
1.4725000,1.4725000,1.4725000,-0.0009810,-0.0004761,-0.0637021,-0.0009810,-0.0016078,-0.0014816
1.4750000,1.4750000,1.4750000,-0.0009710,-0.0004737,-0.0633766,-0.0009710,-0.0015956,-0.0014622
1.4775000,1.4775000,1.4775000,-0.0009611,-0.0004713,-0.0630532,-0.0009611,-0.0015836,-0.0014430
1.4800000,1.4800000,1.4800000,-0.0009513,-0.0004689,-0.0627321,-0.0009513,-0.0015717,-0.0014242
1.4825000,1.4825000,1.4825000,-0.0009417,-0.0004665,-0.0624131,-0.0009417,-0.0015599,-0.0014055
1.4850000,1.4850000,1.4850000,-0.0009321,-0.0004642,-0.0620963,-0.0009321,-0.0015482,-0.0013871
1.4875000,1.4875000,1.4875000,-0.0009227,-0.0004619,-0.0617817,-0.0009227,-0.0015367,-0.0013690
1.4900000,1.4900000,1.4900000,-0.0009133,-0.0004596,-0.0614692,-0.0009133,-0.0015252,-0.0013510
1.4925000,1.4925000,1.4925000,-0.0009041,-0.0004573,-0.0611587,-0.0009041,-0.0015139,-0.0013333
1.4950000,1.4950000,1.4950000,-0.0008950,-0.0004550,-0.0608504,-0.0008950,-0.0015027,-0.0013159
1.4975000,1.4975000,1.4975000,-0.0008860,-0.0004527,-0.0605441,-0.0008860,-0.0014916,-0.0012986
1.5000000,1.5000000,1.5000000,-0.0008771,-0.0004505,-0.0602399,-0.0008771,-0.0014806,-0.0012816
1.5025000,1.5025000,1.5025000,-0.0008683,-0.0004483,-0.0599378,-0.0008683,-0.0014697,-0.0012648
1.5050000,1.5050000,1.5050000,-0.0008597,-0.0004460,-0.0596376,-0.0008597,-0.0014590,-0.0012482
1.5075000,1.5075000,1.5075000,-0.0008511,-0.0004438,-0.0593395,-0.0008511,-0.0014483,-0.0012318
1.5100000,1.5100000,1.5100000,-0.0008426,-0.0004417,-0.0590433,-0.0008426,-0.0014377,-0.0012157
1.5125000,1.5125000,1.5125000,-0.0008342,-0.0004395,-0.0587492,-0.0008342,-0.0014273,-0.0011997
1.5150000,1.5150000,1.5150000,-0.0008259,-0.0004373,-0.0584569,-0.0008259,-0.0014169,-0.0011840
1.5175000,1.5175000,1.5175000,-0.0008177,-0.0004352,-0.0581666,-0.0008177,-0.0014067,-0.0011684
1.5200000,1.5200000,1.5200000,-0.0008096,-0.0004330,-0.0578783,-0.0008096,-0.0013965,-0.0011531
1.5225000,1.5225000,1.5225000,-0.0008016,-0.0004309,-0.0575918,-0.0008016,-0.0013865,-0.0011379
1.5250000,1.5250000,1.5250000,-0.0007937,-0.0004288,-0.0573072,-0.0007937,-0.0013765,-0.0011230
1.5275000,1.5275000,1.5275000,-0.0007859,-0.0004267,-0.0570245,-0.0007859,-0.0013666,-0.0011082
1.5300000,1.5300000,1.5300000,-0.0007781,-0.0004246,-0.0567437,-0.0007781,-0.0013569,-0.0010936
1.5325000,1.5325000,1.5325000,-0.0007705,-0.0004226,-0.0564647,-0.0007705,-0.0013472,-0.0010792
1.5350000,1.5350000,1.5350000,-0.0007629,-0.0004205,-0.0561875,-0.0007629,-0.0013376,-0.0010650
1.5375000,1.5375000,1.5375000,-0.0007555,-0.0004185,-0.0559122,-0.0007555,-0.0013281,-0.0010510
1.5400000,1.5400000,1.5400000,-0.0007481,-0.0004165,-0.0556386,-0.0007481,-0.0013187,-0.0010371
1.5425000,1.5425000,1.5425000,-0.0007408,-0.0004145,-0.0553669,-0.0007408,-0.0013094,-0.0010234
1.5450000,1.5450000,1.5450000,-0.0007336,-0.0004125,-0.0550969,-0.0007336,-0.0013002,-0.0010099
1.5475000,1.5475000,1.5475000,-0.0007264,-0.0004105,-0.0548286,-0.0007264,-0.0012911,-0.0009966
1.5500000,1.5500000,1.5500000,-0.0007194,-0.0004085,-0.0545621,-0.0007194,-0.0012820,-0.0009834
1.5525000,1.5525000,1.5525000,-0.0007124,-0.0004065,-0.0542973,-0.0007124,-0.0012731,-0.0009704
1.5550000,1.5550000,1.5550000,-0.0007055,-0.0004046,-0.0540343,-0.0007055,-0.0012642,-0.0009576
1.5575000,1.5575000,1.5575000,-0.0006987,-0.0004027,-0.0537729,-0.0006987,-0.0012554,-0.0009449
1.5600000,1.5600000,1.5600000,-0.0006920,-0.0004007,-0.0535132,-0.0006920,-0.0012467,-0.0009324
1.5625000,1.5625000,1.5625000,-0.0006853,-0.0003988,-0.0532552,-0.0006853,-0.0012381,-0.0009200
1.5650000,1.5650000,1.5650000,-0.0006787,-0.0003969,-0.0529989,-0.0006787,-0.0012295,-0.0009078
1.5675000,1.5675000,1.5675000,-0.0006722,-0.0003950,-0.0527442,-0.0006722,-0.0012211,-0.0008958
1.5700000,1.5700000,1.5700000,-0.0006657,-0.0003932,-0.0524911,-0.0006657,-0.0012127,-0.0008839
1.5725000,1.5725000,1.5725000,-0.0006594,-0.0003913,-0.0522397,-0.0006594,-0.0012044,-0.0008721
1.5750000,1.5750000,1.5750000,-0.0006531,-0.0003895,-0.0519898,-0.0006531,-0.0011961,-0.0008605
1.5775000,1.5775000,1.5775000,-0.0006468,-0.0003876,-0.0517416,-0.0006468,-0.0011880,-0.0008490
1.5800000,1.5800000,1.5800000,-0.0006407,-0.0003858,-0.0514949,-0.0006407,-0.0011799,-0.0008377
1.5825000,1.5825000,1.5825000,-0.0006346,-0.0003840,-0.0512498,-0.0006346,-0.0011719,-0.0008265
1.5850000,1.5850000,1.5850000,-0.0006286,-0.0003822,-0.0510062,-0.0006286,-0.0011640,-0.0008155
1.5875000,1.5875000,1.5875000,-0.0006226,-0.0003804,-0.0507642,-0.0006226,-0.0011561,-0.0008046
1.5900000,1.5900000,1.5900000,-0.0006167,-0.0003786,-0.0505238,-0.0006167,-0.0011483,-0.0007938
1.5925000,1.5925000,1.5925000,-0.0006109,-0.0003768,-0.0502848,-0.0006109,-0.0011406,-0.0007832
1.5950000,1.5950000,1.5950000,-0.0006051,-0.0003751,-0.0500474,-0.0006051,-0.0011329,-0.0007727
1.5975000,1.5975000,1.5975000,-0.0005994,-0.0003733,-0.0498114,-0.0005994,-0.0011254,-0.0007623
