# r[nm],d[nm],daligned[nm],U(d)[kj/mol],V(d)[e/nm],Uslab(d)[kJ/mol],UC(d)[kJ/mol],UK(d)[kJ/mol],UCl(d)[kJ/mol]
0.1800000,0.1800000,0.1800000,1743.4642875,-0.4440769,1582.4993987,1743.4642875,1118.5668441,inf
0.1825000,0.1825000,0.1825000,1541.4518205,-0.4316212,1270.7327545,1541.4518205,988.2230505,inf
0.1850000,0.1850000,0.1850000,1364.1521045,-0.4195601,1026.4116507,1364.1521045,873.9022392,inf
0.1875000,0.1875000,0.1875000,1208.3737552,-0.4078814,833.6562869,1208.3737552,773.5295666,inf
0.1900000,0.1900000,0.1900000,1071.3614437,-0.3965732,680.6092803,1071.3614437,685.3138802,inf
0.1925000,0.1925000,0.1925000,950.7327784,-0.3856238,558.3499765,950.7327784,607.7065365,inf
0.1950000,0.1950000,0.1950000,844.4248577,-0.3750216,460.1186839,844.4248577,539.3665453,inf
0.1975000,0.1975000,0.1975000,750.6489122,-0.3647552,380.7578102,750.6489122,479.1310371,inf
0.2000000,0.2000000,0.2000000,667.8517318,-0.3548129,316.3060960,667.8517318,425.9902278,inf
0.2025000,0.2025000,0.2025000,594.6828065,-0.3451829,263.7017926,594.6828065,379.0661815,inf
0.2050000,0.2050000,0.2050000,529.9663000,-0.3358527,220.5639706,529.9663000,337.5947728,inf
0.2075000,0.2075000,0.2075000,472.6771260,-0.3268093,185.0302813,472.6771260,300.9103275,inf
0.2100000,0.2100000,0.2100000,421.9205206,-0.3180395,155.6357987,421.9205206,268.4324920,1724.1182890
0.2125000,0.2125000,0.2125000,376.9145920,-0.3095294,131.2219633,376.9145920,239.6549501,1542.1570681
0.2150000,0.2150000,0.2150000,336.9753984,-0.3012653,110.8677286,336.9753984,214.1356752,1380.3601851
0.2175000,0.2175000,0.2175000,301.5041623,-0.2932341,93.8371817,301.5041623,191.4884709,1236.3779482
0.2200000,0.2200000,0.2200000,269.9762800,-0.2854233,79.5394655,269.9762800,171.3756150,1108.1493744
0.2225000,0.2225000,0.2225000,241.9318339,-0.2778222,67.4979413,241.9318339,153.5014613,993.8647747
0.2250000,0.2250000,0.2250000,216.9673627,-0.2704217,57.3263481,216.9673627,137.6068861,891.9334407
0.2275000,0.2275000,0.2275000,194.7286951,-0.2632143,48.7102902,194.7286951,123.4644810,800.9556970
0.2300000,0.2300000,0.2300000,174.9046927,-0.2561945,41.3928048,174.9046927,110.8744040,719.6986952
0.2325000,0.2325000,0.2325000,157.2217818,-0.2493584,35.1630533,157.2217818,99.6608034,647.0754189
0.2350000,0.2350000,0.2350000,141.4391789,-0.2427033,29.8474046,141.4391789,89.6687382,582.1264551
0.2375000,0.2375000,0.2375000,127.3447305,-0.2362272,25.3023568,127.3447305,80.7615230,524.0041574
0.2400000,0.2400000,0.2400000,114.7512944,-0.2299291,21.4088865,114.7512944,72.8184331,471.9588821
0.2425000,0.2425000,0.2425000,103.4935988,-0.2238080,18.0679210,103.4935988,65.7327146,425.3270306
0.2450000,0.2450000,0.2450000,93.4255177,-0.2178628,15.1967044,93.4255177,59.4098430,383.5206594
0.2475000,0.2475000,0.2475000,84.4177071,-0.2120924,12.7258757,84.4177071,53.7659582,346.0184505
0.2500000,0.2500000,0.2500000,76.3555507,-0.2064954,10.5971105,76.3555507,48.7263612,312.3578527
0.2525000,0.2525000,0.2525000,69.1373681,-0.2010695,8.7612054,69.1373681,44.2238928,282.1282241
0.2550000,0.2550000,0.2550000,62.6728381,-0.1958122,7.1764982,62.6728381,40.1970207,254.9648237
0.2575000,0.2575000,0.2575000,56.8815700,-0.1907185,5.8075399,56.8815700,36.5876545,230.5435246
0.2600000,0.2600000,0.2600000,51.6917185,-0.1857771,4.6239685,51.6917185,33.3391642,208.5761428
0.2625000,0.2625000,0.2625000,47.0384811,-0.1809584,3.5995847,47.0384811,30.3956528,188.8062987
0.2650000,0.2650000,0.2650000,42.8623244,-0.1761933,2.7116512,42.8623244,27.7037344,171.0057478
0.2675000,0.2675000,0.2675000,39.1069540,-0.1713434,1.9404238,39.1069540,25.2171096,154.9711338
0.2700000,0.2700000,0.2700000,35.7174467,-0.1661810,1.2688577,35.7174467,22.9019812,140.5211211
0.2725000,0.2725000,0.2725000,32.6394777,-0.1604083,0.6823903,32.6394777,20.7396621,127.4938718
0.2750000,0.2750000,0.2750000,29.8207980,-0.1537518,0.1686973,29.8207980,18.7241807,115.7448304
0.2775000,0.2775000,0.2775000,27.2153540,-0.1461178,-0.2826259,27.2153540,16.8564342,105.1447806
0.2800000,0.2800000,0.2800000,24.7884725,-0.1377140,-0.6804333,24.7884725,15.1384126,95.5781393
0.2825000,0.2825000,0.2825000,22.5198159,-0.1290163,-1.0323780,22.5198159,13.5697576,86.9414538
0.2850000,0.2850000,0.2850000,20.4017520,-0.1205780,-1.3451689,20.4017520,12.1467364,79.1420682
0.2875000,0.2875000,0.2875000,18.4341269,-0.1128276,-1.6247046,18.4341269,10.8626565,72.0969226
0.2900000,0.2900000,0.2900000,16.6186262,-0.1059827,-1.8760990,16.6186262,9.7087914,65.7314273
0.2925000,0.2925000,0.2925000,14.9551148,-0.1000772,-2.1036437,14.9551148,8.6752960,59.9783229
0.2950000,0.2950000,0.2950000,13.4403165,-0.0950363,-2.3107615,13.4403165,7.7519181,54.7764067
0.2975000,0.2975000,0.2975000,12.0680180,-0.0907404,-2.5000004,12.0680180,6.9284835,50.0690359
0.3000000,0.3000000,0.3000000,10.8298914,-0.0870649,-2.6730992,10.8298914,6.1951951,45.8024680
0.3025000,0.3025000,0.3025000,9.7163790,-0.0838982,-2.8311323,9.7163790,5.5427994,41.9243953
0.3050000,0.3050000,0.3050000,8.7174094,-0.0811466,-2.9747107,8.7174094,4.9626652,38.3833733
0.3075000,0.3075000,0.3075000,7.8229008,-0.0787338,-3.1041983,7.8229008,4.4468099,35.1299612
0.3100000,0.3100000,0.3100000,7.0230789,-0.0765981,-3.2199003,7.0230789,3.9878958,32.1198559
0.3125000,0.3125000,0.3125000,6.3086590,-0.0746889,-3.3221952,6.3086590,3.5792112,29.3179662
0.3150000,0.3150000,0.3150000,5.6709360,-0.0729636,-3.4116013,5.6709360,3.2146455,26.7011061
0.3175000,0.3175000,0.3175000,5.1018177,-0.0713856,-3.4887882,5.1018177,2.8886601,24.2573782
0.3200000,0.3200000,0.3200000,4.5938253,-0.0699224,-3.5545493,4.5938253,2.5962606,21.9824982
0.3225000,0.3225000,0.3225000,4.1400763,-0.0685442,-3.6097567,4.1400763,2.3329710,19.8751950
0.3250000,0.3250000,0.3250000,3.7342600,-0.0672237,-3.6553136,3.7342600,2.0948163,17.9337279
0.3275000,0.3275000,0.3275000,3.3706102,-0.0659354,-3.6921170,3.3706102,1.8783126,16.1542121
0.3300000,0.3300000,0.3300000,3.0438787,-0.0646557,-3.7210377,3.0438787,1.6804635,14.5303651
0.3325000,0.3325000,0.3325000,2.7493147,-0.0633630,-3.7429166,2.7493147,1.4987529,13.0539843
0.3350000,0.3350000,0.3350000,2.4826529,-0.0620382,-3.7585702,2.4826529,1.3311249,11.7156365
0.3375000,0.3375000,0.3375000,2.2401105,-0.0606657,-3.7687945,2.2401105,1.1759423,10.5052899
0.3400000,0.3400000,0.3400000,2.0183907,-0.0592335,-3.7743591,2.0183907,1.0319215,9.4127963
0.3425000,0.3425000,0.3425000,1.8146847,-0.0577350,-3.7759896,1.8146847,0.8980525,8.4282185
0.3450000,0.3450000,0.3450000,1.6266611,-0.0561688,-3.7743477,1.6266611,0.7735156,7.5420306
0.3475000,0.3475000,0.3475000,1.4524340,-0.0545387,-3.7700153,1.4524340,0.6576077,6.7452260
0.3500000,0.3500000,0.3500000,1.2905080,-0.0528528,-3.7634877,1.2905080,0.5496888,6.0293626
0.3525000,0.3525000,0.3525000,1.1397037,-0.0511224,-3.7551751,1.1397037,0.4491481,5.3865699
0.3550000,0.3550000,0.3550000,0.9990764,-0.0493597,-3.7454046,0.9990764,0.3553910,4.8095340
0.3575000,0.3575000,0.3575000,0.8678384,-0.0475769,-3.7344214,0.8678384,0.2678405,4.2914708
0.3600000,0.3600000,0.3600000,0.7452968,-0.0457847,-3.7223858,0.7452968,0.1859499,3.8260965
0.3625000,0.3625000,0.3625000,0.6308101,-0.0439915,-3.7093718,0.6308101,0.1092236,3.4075997
0.3650000,0.3650000,0.3650000,0.5237652,-0.0422041,-3.6953700,0.5237652,0.0372393,3.0306205
0.3675000,0.3675000,0.3675000,0.4235713,-0.0404271,-3.6802985,0.4235713,-0.0303326,2.6902383
0.3700000,0.3700000,0.3700000,0.3296677,-0.0386641,-3.6640219,0.3296677,-0.0937193,2.3819722
0.3725000,0.3725000,0.3725000,0.2415420,-0.0369187,-3.6463752,0.2415420,-0.1530496,2.1017883
0.3750000,0.3750000,0.3750000,0.1587516,-0.0351949,-3.6271877,0.1587516,-0.2083705,1.8461114
0.3775000,0.3775000,0.3775000,0.0809419,-0.0334983,-3.6063056,0.0809419,-0.2596744,1.6118314
0.3800000,0.3800000,0.3800000,0.0078565,-0.0318362,-3.5836074,0.0078565,-0.3069301,1.3962962
0.3825000,0.3825000,0.3825000,-0.0606661,-0.0302170,-3.5590142,-0.0606661,-0.3501154,1.1972871
0.3850000,0.3850000,0.3850000,-0.1247075,-0.0286503,-3.5324933,-0.1247075,-0.3892463,1.0129743
0.3875000,0.3875000,0.3875000,-0.1842939,-0.0271451,-3.5040572,-0.1842939,-0.4244012,0.8418586
0.3900000,0.3900000,0.3900000,-0.2394248,-0.0257096,-3.4737595,-0.2394248,-0.4557360,0.6827047
0.3925000,0.3925000,0.3925000,-0.2901029,-0.0243502,-3.4416882,-0.2901029,-0.4834905,0.5344770
0.3950000,0.3950000,0.3950000,-0.3363613,-0.0230709,-3.4079582,-0.3363613,-0.5079820,0.3962841
0.3975000,0.3975000,0.3975000,-0.3782858,-0.0218731,-3.3727044,-0.3782858,-0.5295876,0.2673365
0.4000000,0.4000000,0.4000000,-0.4160306,-0.0207557,-3.3360747,-0.4160306,-0.5487168,0.1469210
0.4025000,0.4025000,0.4025000,-0.4498249,-0.0197156,-3.2982239,-0.4498249,-0.5657780,0.0343903
0.4050000,0.4050000,0.4050000,-0.4799702,-0.0187475,-3.2593092,-0.4799702,-0.5811468,-0.0708365
0.4075000,0.4075000,0.4075000,-0.5068266,-0.0178452,-3.2194858,-0.5068266,-0.5951416,-0.1692660
0.4100000,0.4100000,0.4100000,-0.5307902,-0.0170019,-3.1789043,-0.5307902,-0.6080132,-0.2613227
0.4125000,0.4125000,0.4125000,-0.5522651,-0.0162107,-3.1377083,-0.5522651,-0.6199462,-0.3473452
0.4150000,0.4150000,0.4150000,-0.5716350,-0.0154651,-3.0960329,-0.5716350,-0.6310698,-0.4275898
0.4175000,0.4175000,0.4175000,-0.5892406,-0.0147594,-3.0540040,-0.5892406,-0.6414725,-0.5022422
0.4200000,0.4200000,0.4200000,-0.6053666,-0.0140883,-3.0117376,-0.6053666,-0.6512146,-0.5714345
0.4225000,0.4225000,0.4225000,-0.6202392,-0.0134472,-2.9693397,-0.6202392,-0.6603391,-0.6352670
0.4250000,0.4250000,0.4250000,-0.6340325,-0.0128322,-2.9269066,-0.6340325,-0.6688770,-0.6938294
0.4275000,0.4275000,0.4275000,-0.6468778,-0.0122395,-2.8845249,-0.6468778,-0.6768503,-0.7472226
0.4300000,0.4300000,0.4300000,-0.6588747,-0.0116657,-2.8422723,-0.6588747,-0.6842698,-0.7955761
0.4325000,0.4325000,0.4325000,-0.6700989,-0.0111080,-2.8002180,-0.6700989,-0.6911306,-0.8390627
0.4350000,0.4350000,0.4350000,-0.6806086,-0.0105642,-2.7584229,-0.6806086,-0.6974057,-0.8779060
0.4375000,0.4375000,0.4375000,-0.6904464,-0.0100326,-2.7169410,-0.6904464,-0.7030428,-0.9123834
0.4400000,0.4400000,0.4400000,-0.6996381,-0.0095124,-2.6758192,-0.6996381,-0.7079643,-0.9428201
0.4425000,0.4425000,0.4425000,-0.7081891,-0.0090037,-2.6350983,-0.7081891,-0.7120738,-0.9695777
0.4450000,0.4450000,0.4450000,-0.7160802,-0.0085073,-2.5948134,-0.7160802,-0.7152651,-0.9930373
0.4475000,0.4475000,0.4475000,-0.7232661,-0.0080250,-2.5549946,-0.7232661,-0.7174341,-1.0135811
0.4500000,0.4500000,0.4500000,-0.7296764,-0.0075587,-2.5156672,-0.7296764,-0.7184897,-1.0315748
0.4525000,0.4525000,0.4525000,-0.7352220,-0.0071111,-2.4768527,-0.7352220,-0.7183621,-1.0473549
0.4550000,0.4550000,0.4550000,-0.7398035,-0.0066845,-2.4385685,-0.7398035,-0.7170087,-1.0612203
0.4575000,0.4575000,0.4575000,-0.7433224,-0.0062811,-2.4008289,-0.7433224,-0.7144156,-1.0734307
0.4600000,0.4600000,0.4600000,-0.7456904,-0.0059027,-2.3636450,-0.7456904,-0.7105973,-1.0842073
0.4625000,0.4625000,0.4625000,-0.7468381,-0.0055505,-2.3270256,-0.7468381,-0.7055933,-1.0937364
0.4650000,0.4650000,0.4650000,-0.7467199,-0.0052252,-2.2909769,-0.7467199,-0.6994643,-1.1021735
0.4675000,0.4675000,0.4675000,-0.7453170,-0.0049267,-2.2555030,-0.7453170,-0.6922873,-1.1096452
0.4700000,0.4700000,0.4700000,-0.7426371,-0.0046545,-2.2206063,-0.7426371,-0.6841510,-1.1162507
0.4725000,0.4725000,0.4725000,-0.7387121,-0.0044075,-2.1862876,-0.7387121,-0.6751508,-1.1220612
0.4750000,0.4750000,0.4750000,-0.7335951,-0.0041846,-2.1525461,-0.7335951,-0.6653859,-1.1271178
0.4775000,0.4775000,0.4775000,-0.7273559,-0.0039842,-2.1193799,-0.7273559,-0.6549553,-1.1314312
0.4800000,0.4800000,0.4800000,-0.7200772,-0.0038044,-2.0867860,-0.7200772,-0.6439560,-1.1349826
0.4825000,0.4825000,0.4825000,-0.7118497,-0.0036437,-2.0547604,-0.7118497,-0.6324808,-1.1377263
0.4850000,0.4850000,0.4850000,-0.7027694,-0.0035003,-2.0232983,-0.7027694,-0.6206169,-1.1395963
0.4875000,0.4875000,0.4875000,-0.6929336,-0.0033723,-1.9923941,-0.6929336,-0.6084455,-1.1405136
0.4900000,0.4900000,0.4900000,-0.6824391,-0.0032582,-1.9620419,-0.6824391,-0.5960411,-1.1403951
0.4925000,0.4925000,0.4925000,-0.6713794,-0.0031564,-1.9322349,-0.6713794,-0.5834712,-1.1391617
0.4950000,0.4950000,0.4950000,-0.6598441,-0.0030654,-1.9029661,-0.6598441,-0.5707967,-1.1367461
0.4975000,0.4975000,0.4975000,-0.6479173,-0.0029841,-1.8742282,-0.6479173,-0.5580719,-1.1330979
0.5000000,0.5000000,0.5000000,-0.6356770,-0.0029111,-1.8460132,-0.6356770,-0.5453448,-1.1281868
0.5025000,0.5025000,0.5025000,-0.6231951,-0.0028455,-1.8183134,-0.6231951,-0.5326575,-1.1220047
0.5050000,0.5050000,0.5050000,-0.6105370,-0.0027862,-1.7911205,-0.6105370,-0.5200470,-1.1145647
0.5075000,0.5075000,0.5075000,-0.5977619,-0.0027324,-1.7644263,-0.5977619,-0.5075449,-1.1059000
0.5100000,0.5100000,0.5100000,-0.5849225,-0.0026834,-1.7382222,-0.5849225,-0.4951786,-1.0960609
0.5125000,0.5125000,0.5125000,-0.5720661,-0.0026385,-1.7124998,-0.5720661,-0.4829714,-1.0851123
0.5150000,0.5150000,0.5150000,-0.5592344,-0.0025972,-1.6872506,-0.5592344,-0.4709427,-1.0731302
0.5175000,0.5175000,0.5175000,-0.5464638,-0.0025589,-1.6624659,-0.5464638,-0.4591088,-1.0601983
0.5200000,0.5200000,0.5200000,-0.5337862,-0.0025232,-1.6381373,-0.5337862,-0.4474832,-1.0464060
0.5225000,0.5225000,0.5225000,-0.5212292,-0.0024898,-1.6142561,-0.5212292,-0.4360764,-1.0318446
0.5250000,0.5250000,0.5250000,-0.5088165,-0.0024582,-1.5908140,-0.5088165,-0.4248972,-1.0166061
0.5275000,0.5275000,0.5275000,-0.4965682,-0.0024283,-1.5678023,-0.4965682,-0.4139518,-1.0007811
0.5300000,0.5300000,0.5300000,-0.4845014,-0.0023997,-1.5452129,-0.4845014,-0.4032451,-0.9844572
0.5325000,0.5325000,0.5325000,-0.4726302,-0.0023723,-1.5230373,-0.4726302,-0.3927803,-0.9677181
0.5350000,0.5350000,0.5350000,-0.4609662,-0.0023459,-1.5012674,-0.4609662,-0.3825592,-0.9506431
0.5375000,0.5375000,0.5375000,-0.4495188,-0.0023204,-1.4798952,-0.4495188,-0.3725825,-0.9333061
0.5400000,0.5400000,0.5400000,-0.4382955,-0.0022956,-1.4589125,-0.4382955,-0.3628500,-0.9157756
0.5425000,0.5425000,0.5425000,-0.4273019,-0.0022714,-1.4383116,-0.4273019,-0.3533606,-0.8981146
0.5450000,0.5450000,0.5450000,-0.4165420,-0.0022477,-1.4180847,-0.4165420,-0.3441123,-0.8803807
0.5475000,0.5475000,0.5475000,-0.4060188,-0.0022244,-1.3982242,-0.4060188,-0.3351028,-0.8626258
0.5500000,0.5500000,0.5500000,-0.3957337,-0.0022016,-1.3787226,-0.3957337,-0.3263289,-0.8448969
0.5525000,0.5525000,0.5525000,-0.3856873,-0.0021790,-1.3595725,-0.3856873,-0.3177874,-0.8272359
0.5550000,0.5550000,0.5550000,-0.3758793,-0.0021568,-1.3407666,-0.3758793,-0.3094743,-0.8096801
0.5575000,0.5575000,0.5575000,-0.3663086,-0.0021348,-1.3222980,-0.3663086,-0.3013857,-0.7922623
0.5600000,0.5600000,0.5600000,-0.3569735,-0.0021130,-1.3041595,-0.3569735,-0.2935171,-0.7750115
0.5625000,0.5625000,0.5625000,-0.3478716,-0.0020914,-1.2863445,-0.3478716,-0.2858642,-0.7579527
0.5650000,0.5650000,0.5650000,-0.3390002,-0.0020700,-1.2688461,-0.3390002,-0.2784221,-0.7411077
0.5675000,0.5675000,0.5675000,-0.3303560,-0.0020488,-1.2516578,-0.3303560,-0.2711863,-0.7244951
0.5700000,0.5700000,0.5700000,-0.3219356,-0.0020277,-1.2347732,-0.3219356,-0.2641518,-0.7081307
0.5725000,0.5725000,0.5725000,-0.3137350,-0.0020068,-1.2181859,-0.3137350,-0.2573138,-0.6920277
0.5750000,0.5750000,0.5750000,-0.3057504,-0.0019860,-1.2018899,-0.3057504,-0.2506674,-0.6761970
0.5775000,0.5775000,0.5775000,-0.2979775,-0.0019653,-1.1858790,-0.2979775,-0.2442077,-0.6606474
0.5800000,0.5800000,0.5800000,-0.2904119,-0.0019448,-1.1701474,-0.2904119,-0.2379298,-0.6453860
0.5825000,0.5825000,0.5825000,-0.2830492,-0.0019244,-1.1546893,-0.2830492,-0.2318290,-0.6304180
0.5850000,0.5850000,0.5850000,-0.2758849,-0.0019041,-1.1394990,-0.2758849,-0.2259005,-0.6157473
0.5875000,0.5875000,0.5875000,-0.2689144,-0.0018840,-1.1245709,-0.2689144,-0.2201395,-0.6013764
0.5900000,0.5900000,0.5900000,-0.2621330,-0.0018640,-1.1098997,-0.2621330,-0.2145413,-0.5873066
0.5925000,0.5925000,0.5925000,-0.2555363,-0.0018442,-1.0954801,-0.2555363,-0.2091015,-0.5735384
0.5950000,0.5950000,0.5950000,-0.2491195,-0.0018244,-1.0813069,-0.2491195,-0.2038155,-0.5600711
0.5975000,0.5975000,0.5975000,-0.2428781,-0.0018049,-1.0673749,-0.2428781,-0.1986789,-0.5469034
0.6000000,0.6000000,0.6000000,-0.2368075,-0.0017854,-1.0536794,-0.2368075,-0.1936875,-0.5340333
0.6025000,0.6025000,0.6025000,-0.2309034,-0.0017662,-1.0402154,-0.2309034,-0.1888369,-0.5214582
0.6050000,0.6050000,0.6050000,-0.2251612,-0.0017470,-1.0269782,-0.2251612,-0.1841232,-0.5091749
0.6075000,0.6075000,0.6075000,-0.2195766,-0.0017281,-1.0139632,-0.2195766,-0.1795422,-0.4971799
0.6100000,0.6100000,0.6100000,-0.2141453,-0.0017092,-1.0011659,-0.2141453,-0.1750901,-0.4854693
0.6125000,0.6125000,0.6125000,-0.2088631,-0.0016906,-0.9885818,-0.2088631,-0.1707631,-0.4740387
0.6150000,0.6150000,0.6150000,-0.2037259,-0.0016721,-0.9762067,-0.2037259,-0.1665574,-0.4628836
0.6175000,0.6175000,0.6175000,-0.1987295,-0.0016538,-0.9640362,-0.1987295,-0.1624694,-0.4519994
0.6200000,0.6200000,0.6200000,-0.1938702,-0.0016356,-0.9520664,-0.1938702,-0.1584957,-0.4413810
0.6225000,0.6225000,0.6225000,-0.1891438,-0.0016176,-0.9402931,-0.1891438,-0.1546327,-0.4310235
0.6250000,0.6250000,0.6250000,-0.1845468,-0.0015998,-0.9287124,-0.1845468,-0.1508772,-0.4209217
0.6275000,0.6275000,0.6275000,-0.1800754,-0.0015821,-0.9173205,-0.1800754,-0.1472260,-0.4110704
0.6300000,0.6300000,0.6300000,-0.1757260,-0.0015647,-0.9061136,-0.1757260,-0.1436759,-0.4014642
0.6325000,0.6325000,0.6325000,-0.1714951,-0.0015474,-0.8950881,-0.1714951,-0.1402238,-0.3920978
0.6350000,0.6350000,0.6350000,-0.1673793,-0.0015302,-0.8842402,-0.1673793,-0.1368669,-0.3829660
0.6375000,0.6375000,0.6375000,-0.1633753,-0.0015133,-0.8735666,-0.1633753,-0.1336023,-0.3740634
0.6400000,0.6400000,0.6400000,-0.1594797,-0.0014965,-0.8630638,-0.1594797,-0.1304272,-0.3653847
0.6425000,0.6425000,0.6425000,-0.1556896,-0.0014800,-0.8527285,-0.1556896,-0.1273389,-0.3569246
0.6450000,0.6450000,0.6450000,-0.1520017,-0.0014635,-0.8425573,-0.1520017,-0.1243348,-0.3486779
0.6475000,0.6475000,0.6475000,-0.1484132,-0.0014473,-0.8325470,-0.1484132,-0.1214124,-0.3406395
0.6500000,0.6500000,0.6500000,-0.1449211,-0.0014313,-0.8226946,-0.1449211,-0.1185692,-0.3328042
0.6525000,0.6525000,0.6525000,-0.1415226,-0.0014154,-0.8129969,-0.1415226,-0.1158029,-0.3251671
0.6550000,0.6550000,0.6550000,-0.1382151,-0.0013997,-0.8034510,-0.1382151,-0.1131111,-0.3177231
0.6575000,0.6575000,0.6575000,-0.1349958,-0.0013842,-0.7940540,-0.1349958,-0.1104917,-0.3104673
0.6600000,0.6600000,0.6600000,-0.1318623,-0.0013689,-0.7848029,-0.1318623,-0.1079425,-0.3033951
0.6625000,0.6625000,0.6625000,-0.1288119,-0.0013538,-0.7756950,-0.1288119,-0.1054614,-0.2965017
0.6650000,0.6650000,0.6650000,-0.1258423,-0.0013388,-0.7667275,-0.1258423,-0.1030463,-0.2897825
0.6675000,0.6675000,0.6675000,-0.1229511,-0.0013240,-0.7578978,-0.1229511,-0.1006953,-0.2832329
0.6700000,0.6700000,0.6700000,-0.1201360,-0.0013094,-0.7492032,-0.1201360,-0.0984066,-0.2768486
0.6725000,0.6725000,0.6725000,-0.1173950,-0.0012950,-0.7406413,-0.1173950,-0.0961782,-0.2706252
0.6750000,0.6750000,0.6750000,-0.1147257,-0.0012807,-0.7322095,-0.1147257,-0.0940084,-0.2645585
0.6775000,0.6775000,0.6775000,-0.1121261,-0.0012667,-0.7239053,-0.1121261,-0.0918955,-0.2586444
0.6800000,0.6800000,0.6800000,-0.1095942,-0.0012527,-0.7157263,-0.1095942,-0.0898377,-0.2528789
0.6825000,0.6825000,0.6825000,-0.1071281,-0.0012390,-0.7076703,-0.1071281,-0.0878336,-0.2472579
0.6850000,0.6850000,0.6850000,-0.1047259,-0.0012254,-0.6997350,-0.1047259,-0.0858815,-0.2417777
0.6875000,0.6875000,0.6875000,-0.1023856,-0.0012120,-0.6919180,-0.1023856,-0.0839798,-0.2364346
0.6900000,0.6900000,0.6900000,-0.1001057,-0.0011988,-0.6842172,-0.1001057,-0.0821272,-0.2312247
0.6925000,0.6925000,0.6925000,-0.0978842,-0.0011857,-0.6766305,-0.0978842,-0.0803223,-0.2261447
0.6950000,0.6950000,0.6950000,-0.0957196,-0.0011728,-0.6691558,-0.0957196,-0.0785635,-0.2211910
0.6975000,0.6975000,0.6975000,-0.0936101,-0.0011601,-0.6617910,-0.0936101,-0.0768496,-0.2163602
0.7000000,0.7000000,0.7000000,-0.0915544,-0.0011475,-0.6545341,-0.0915544,-0.0751794,-0.2116491
0.7025000,0.7025000,0.7025000,-0.0895507,-0.0011351,-0.6473831,-0.0895507,-0.0735515,-0.2070545
0.7050000,0.7050000,0.7050000,-0.0875977,-0.0011228,-0.6403362,-0.0875977,-0.0719647,-0.2025731
0.7075000,0.7075000,0.7075000,-0.0856940,-0.0011107,-0.6333915,-0.0856940,-0.0704179,-0.1982021
0.7100000,0.7100000,0.7100000,-0.0838380,-0.0010988,-0.6265470,-0.0838380,-0.0689100,-0.1939384
0.7125000,0.7125000,0.7125000,-0.0820285,-0.0010870,-0.6198011,-0.0820285,-0.0674398,-0.1897792
0.7150000,0.7150000,0.7150000,-0.0802642,-0.0010754,-0.6131519,-0.0802642,-0.0660062,-0.1857216
0.7175000,0.7175000,0.7175000,-0.0785438,-0.0010639,-0.6065978,-0.0785438,-0.0646082,-0.1817630
0.7200000,0.7200000,0.7200000,-0.0768660,-0.0010525,-0.6001370,-0.0768660,-0.0632449,-0.1779007
0.7225000,0.7225000,0.7225000,-0.0752298,-0.0010413,-0.5937679,-0.0752298,-0.0619152,-0.1741321
0.7250000,0.7250000,0.7250000,-0.0736339,-0.0010303,-0.5874888,-0.0736339,-0.0606183,-0.1704548
0.7275000,0.7275000,0.7275000,-0.0720771,-0.0010193,-0.5812982,-0.0720771,-0.0593531,-0.1668663
0.7300000,0.7300000,0.7300000,-0.0705586,-0.0010086,-0.5751946,-0.0705586,-0.0581188,-0.1633641
0.7325000,0.7325000,0.7325000,-0.0690771,-0.0009979,-0.5691764,-0.0690771,-0.0569147,-0.1599462
0.7350000,0.7350000,0.7350000,-0.0676316,-0.0009874,-0.5632421,-0.0676316,-0.0557397,-0.1566101
0.7375000,0.7375000,0.7375000,-0.0662213,-0.0009771,-0.5573903,-0.0662213,-0.0545931,-0.1533538
0.7400000,0.7400000,0.7400000,-0.0648450,-0.0009669,-0.5516195,-0.0648450,-0.0534742,-0.1501750
0.7425000,0.7425000,0.7425000,-0.0635019,-0.0009568,-0.5459284,-0.0635019,-0.0523822,-0.1470719
0.7450000,0.7450000,0.7450000,-0.0621911,-0.0009468,-0.5403155,-0.0621911,-0.0513163,-0.1440423
0.7475000,0.7475000,0.7475000,-0.0609117,-0.0009370,-0.5347796,-0.0609117,-0.0502758,-0.1410844
0.7500000,0.7500000,0.7500000,-0.0596628,-0.0009273,-0.5293193,-0.0596628,-0.0492601,-0.1381962
0.7525000,0.7525000,0.7525000,-0.0584437,-0.0009177,-0.5239333,-0.0584437,-0.0482685,-0.1353759
0.7550000,0.7550000,0.7550000,-0.0572534,-0.0009082,-0.5186204,-0.0572534,-0.0473003,-0.1326218
0.7575000,0.7575000,0.7575000,-0.0560914,-0.0008989,-0.5133794,-0.0560914,-0.0463549,-0.1299320
0.7600000,0.7600000,0.7600000,-0.0549567,-0.0008897,-0.5082089,-0.0549567,-0.0454316,-0.1273051
0.7625000,0.7625000,0.7625000,-0.0538487,-0.0008806,-0.5031080,-0.0538487,-0.0445300,-0.1247392
0.7650000,0.7650000,0.7650000,-0.0527666,-0.0008716,-0.4980752,-0.0527666,-0.0436494,-0.1222328
0.7675000,0.7675000,0.7675000,-0.0517098,-0.0008627,-0.4931097,-0.0517098,-0.0427892,-0.1197844
0.7700000,0.7700000,0.7700000,-0.0506776,-0.0008540,-0.4882101,-0.0506776,-0.0419489,-0.1173924
0.7725000,0.7725000,0.7725000,-0.0496693,-0.0008453,-0.4833755,-0.0496693,-0.0411281,-0.1150555
0.7750000,0.7750000,0.7750000,-0.0486844,-0.0008368,-0.4786048,-0.0486844,-0.0403261,-0.1127721
0.7775000,0.7775000,0.7775000,-0.0477222,-0.0008284,-0.4738968,-0.0477222,-0.0395425,-0.1105410
0.7800000,0.7800000,0.7800000,-0.0467821,-0.0008201,-0.4692506,-0.0467821,-0.0387768,-0.1083607
0.7825000,0.7825000,0.7825000,-0.0458635,-0.0008119,-0.4646652,-0.0458635,-0.0380285,-0.1062301
0.7850000,0.7850000,0.7850000,-0.0449659,-0.0008038,-0.4601396,-0.0449659,-0.0372972,-0.1041477
0.7875000,0.7875000,0.7875000,-0.0440887,-0.0007958,-0.4556727,-0.0440887,-0.0365825,-0.1021124
0.7900000,0.7900000,0.7900000,-0.0432314,-0.0007879,-0.4512637,-0.0432314,-0.0358839,-0.1001230
0.7925000,0.7925000,0.7925000,-0.0423936,-0.0007801,-0.4469116,-0.0423936,-0.0352009,-0.0981782
0.7950000,0.7950000,0.7950000,-0.0415746,-0.0007724,-0.4426155,-0.0415746,-0.0345333,-0.0962771
0.7975000,0.7975000,0.7975000,-0.0407740,-0.0007648,-0.4383745,-0.0407740,-0.0338806,-0.0944185
0.8000000,0.8000000,0.8000000,-0.0399914,-0.0007573,-0.4341877,-0.0399914,-0.0332424,-0.0926013
0.8025000,0.8025000,0.8025000,-0.0392262,-0.0007499,-0.4300543,-0.0392262,-0.0326184,-0.0908245
0.8050000,0.8050000,0.8050000,-0.0384781,-0.0007425,-0.4259733,-0.0384781,-0.0320081,-0.0890870
0.8075000,0.8075000,0.8075000,-0.0377466,-0.0007353,-0.4219440,-0.0377466,-0.0314113,-0.0873880
0.8100000,0.8100000,0.8100000,-0.0370313,-0.0007282,-0.4179656,-0.0370313,-0.0308276,-0.0857263
0.8125000,0.8125000,0.8125000,-0.0363318,-0.0007211,-0.4140372,-0.0363318,-0.0302567,-0.0841012
0.8150000,0.8150000,0.8150000,-0.0356476,-0.0007142,-0.4101581,-0.0356476,-0.0296983,-0.0825116
0.8175000,0.8175000,0.8175000,-0.0349785,-0.0007073,-0.4063274,-0.0349785,-0.0291520,-0.0809568
0.8200000,0.8200000,0.8200000,-0.0343239,-0.0007005,-0.4025446,-0.0343239,-0.0286175,-0.0794358
0.8225000,0.8225000,0.8225000,-0.0336837,-0.0006938,-0.3988086,-0.0336837,-0.0280946,-0.0779479
0.8250000,0.8250000,0.8250000,-0.0330573,-0.0006872,-0.3951190,-0.0330573,-0.0275830,-0.0764922
0.8275000,0.8275000,0.8275000,-0.0324445,-0.0006807,-0.3914749,-0.0324445,-0.0270823,-0.0750679
0.8300000,0.8300000,0.8300000,-0.0318450,-0.0006742,-0.3878757,-0.0318450,-0.0265924,-0.0736743
0.8325000,0.8325000,0.8325000,-0.0312583,-0.0006678,-0.3843206,-0.0312583,-0.0261129,-0.0723105
0.8350000,0.8350000,0.8350000,-0.0306843,-0.0006616,-0.3808090,-0.0306843,-0.0256437,-0.0709760
0.8375000,0.8375000,0.8375000,-0.0301225,-0.0006553,-0.3773402,-0.0301225,-0.0251843,-0.0696700
0.8400000,0.8400000,0.8400000,-0.0295727,-0.0006492,-0.3739135,-0.0295727,-0.0247347,-0.0683917
0.8425000,0.8425000,0.8425000,-0.0290346,-0.0006431,-0.3705284,-0.0290346,-0.0242946,-0.0671406
0.8450000,0.8450000,0.8450000,-0.0285079,-0.0006371,-0.3671842,-0.0285079,-0.0238637,-0.0659160
0.8475000,0.8475000,0.8475000,-0.0279923,-0.0006312,-0.3638802,-0.0279923,-0.0234418,-0.0647172
0.8500000,0.8500000,0.8500000,-0.0274876,-0.0006254,-0.3606160,-0.0274876,-0.0230288,-0.0635436
0.8525000,0.8525000,0.8525000,-0.0269935,-0.0006196,-0.3573908,-0.0269935,-0.0226243,-0.0623947
0.8550000,0.8550000,0.8550000,-0.0265098,-0.0006139,-0.3542041,-0.0265098,-0.0222282,-0.0612698
0.8575000,0.8575000,0.8575000,-0.0260361,-0.0006082,-0.3510553,-0.0260361,-0.0218403,-0.0601683
0.8600000,0.8600000,0.8600000,-0.0255723,-0.0006026,-0.3479438,-0.0255723,-0.0214605,-0.0590898
0.8625000,0.8625000,0.8625000,-0.0251182,-0.0005971,-0.3448692,-0.0251182,-0.0210884,-0.0580336
0.8650000,0.8650000,0.8650000,-0.0246734,-0.0005917,-0.3418308,-0.0246734,-0.0207239,-0.0569993
0.8675000,0.8675000,0.8675000,-0.0242379,-0.0005863,-0.3388282,-0.0242379,-0.0203669,-0.0559864
0.8700000,0.8700000,0.8700000,-0.0238113,-0.0005810,-0.3358607,-0.0238113,-0.0200172,-0.0549942
0.8725000,0.8725000,0.8725000,-0.0233934,-0.0005758,-0.3329279,-0.0233934,-0.0196745,-0.0540224
0.8750000,0.8750000,0.8750000,-0.0229841,-0.0005706,-0.3300293,-0.0229841,-0.0193388,-0.0530705
0.8775000,0.8775000,0.8775000,-0.0225831,-0.0005655,-0.3271644,-0.0225831,-0.0190099,-0.0521380
0.8800000,0.8800000,0.8800000,-0.0221903,-0.0005604,-0.3243327,-0.0221903,-0.0186876,-0.0512245
0.8825000,0.8825000,0.8825000,-0.0218055,-0.0005554,-0.3215337,-0.0218055,-0.0183717,-0.0503295
0.8850000,0.8850000,0.8850000,-0.0214284,-0.0005504,-0.3187669,-0.0214284,-0.0180622,-0.0494526
0.8875000,0.8875000,0.8875000,-0.0210590,-0.0005456,-0.3160318,-0.0210590,-0.0177588,-0.0485934
0.8900000,0.8900000,0.8900000,-0.0206969,-0.0005407,-0.3133281,-0.0206969,-0.0174615,-0.0477515
0.8925000,0.8925000,0.8925000,-0.0203421,-0.0005359,-0.3106553,-0.0203421,-0.0171701,-0.0469265
0.8950000,0.8950000,0.8950000,-0.0199945,-0.0005312,-0.3080129,-0.0199945,-0.0168844,-0.0461179
0.8975000,0.8975000,0.8975000,-0.0196537,-0.0005266,-0.3054005,-0.0196537,-0.0166043,-0.0453255
0.9000000,0.9000000,0.9000000,-0.0193197,-0.0005220,-0.3028176,-0.0193197,-0.0163298,-0.0445489
0.9025000,0.9025000,0.9025000,-0.0189923,-0.0005174,-0.3002639,-0.0189923,-0.0160606,-0.0437877
0.9050000,0.9050000,0.9050000,-0.0186714,-0.0005129,-0.2977390,-0.0186714,-0.0157967,-0.0430415
0.9075000,0.9075000,0.9075000,-0.0183569,-0.0005084,-0.2952423,-0.0183569,-0.0155379,-0.0423101
0.9100000,0.9100000,0.9100000,-0.0180485,-0.0005040,-0.2927736,-0.0180485,-0.0152841,-0.0415930
0.9125000,0.9125000,0.9125000,-0.0177461,-0.0004997,-0.2903325,-0.0177461,-0.0150353,-0.0408900
0.9150000,0.9150000,0.9150000,-0.0174497,-0.0004954,-0.2879185,-0.0174497,-0.0147912,-0.0402008
0.9175000,0.9175000,0.9175000,-0.0171590,-0.0004911,-0.2855313,-0.0171590,-0.0145519,-0.0395251
0.9200000,0.9200000,0.9200000,-0.0168740,-0.0004869,-0.2831705,-0.0168740,-0.0143171,-0.0388624
0.9225000,0.9225000,0.9225000,-0.0165945,-0.0004828,-0.2808358,-0.0165945,-0.0140868,-0.0382127
0.9250000,0.9250000,0.9250000,-0.0163204,-0.0004787,-0.2785268,-0.0163204,-0.0138610,-0.0375755
0.9275000,0.9275000,0.9275000,-0.0160515,-0.0004746,-0.2762431,-0.0160515,-0.0136394,-0.0369506
0.9300000,0.9300000,0.9300000,-0.0157879,-0.0004706,-0.2739843,-0.0157879,-0.0134220,-0.0363378
0.9325000,0.9325000,0.9325000,-0.0155293,-0.0004666,-0.2717502,-0.0155293,-0.0132087,-0.0357367
0.9350000,0.9350000,0.9350000,-0.0152756,-0.0004627,-0.2695405,-0.0152756,-0.0129995,-0.0351471
0.9375000,0.9375000,0.9375000,-0.0150268,-0.0004588,-0.2673547,-0.0150268,-0.0127941,-0.0345688
0.9400000,0.9400000,0.9400000,-0.0147827,-0.0004549,-0.2651925,-0.0147827,-0.0125927,-0.0340016
0.9425000,0.9425000,0.9425000,-0.0145432,-0.0004511,-0.2630537,-0.0145432,-0.0123950,-0.0334450
0.9450000,0.9450000,0.9450000,-0.0143082,-0.0004474,-0.2609380,-0.0143082,-0.0122009,-0.0328991
0.9475000,0.9475000,0.9475000,-0.0140777,-0.0004437,-0.2588449,-0.0140777,-0.0120105,-0.0323634
0.9500000,0.9500000,0.9500000,-0.0138515,-0.0004400,-0.2567742,-0.0138515,-0.0118236,-0.0318379
0.9525000,0.9525000,0.9525000,-0.0136295,-0.0004364,-0.2547256,-0.0136295,-0.0116402,-0.0313222
0.9550000,0.9550000,0.9550000,-0.0134117,-0.0004328,-0.2526989,-0.0134117,-0.0114601,-0.0308162
0.9575000,0.9575000,0.9575000,-0.0131980,-0.0004292,-0.2506936,-0.0131980,-0.0112834,-0.0303197
0.9600000,0.9600000,0.9600000,-0.0129882,-0.0004257,-0.2487096,-0.0129882,-0.0111099,-0.0298324
0.9625000,0.9625000,0.9625000,-0.0127823,-0.0004222,-0.2467466,-0.0127823,-0.0109395,-0.0293542
0.9650000,0.9650000,0.9650000,-0.0125802,-0.0004188,-0.2448042,-0.0125802,-0.0107723,-0.0288849
0.9675000,0.9675000,0.9675000,-0.0123819,-0.0004154,-0.2428822,-0.0123819,-0.0106081,-0.0284243
0.9700000,0.9700000,0.9700000,-0.0121872,-0.0004120,-0.2409804,-0.0121872,-0.0104469,-0.0279721
0.9725000,0.9725000,0.9725000,-0.0119961,-0.0004087,-0.2390984,-0.0119961,-0.0102885,-0.0275283
0.9750000,0.9750000,0.9750000,-0.0118084,-0.0004054,-0.2372361,-0.0118084,-0.0101331,-0.0270926
0.9775000,0.9775000,0.9775000,-0.0116242,-0.0004021,-0.2353931,-0.0116242,-0.0099804,-0.0266649
0.9800000,0.9800000,0.9800000,-0.0114433,-0.0003989,-0.2335692,-0.0114433,-0.0098305,-0.0262451
0.9825000,0.9825000,0.9825000,-0.0112658,-0.0003957,-0.2317641,-0.0112658,-0.0096832,-0.0258328
0.9850000,0.9850000,0.9850000,-0.0110914,-0.0003925,-0.2299777,-0.0110914,-0.0095386,-0.0254281
0.9875000,0.9875000,0.9875000,-0.0109202,-0.0003894,-0.2282096,-0.0109202,-0.0093966,-0.0250307
0.9900000,0.9900000,0.9900000,-0.0107521,-0.0003863,-0.2264597,-0.0107521,-0.0092570,-0.0246405
0.9925000,0.9925000,0.9925000,-0.0105869,-0.0003833,-0.2247277,-0.0105869,-0.0091199,-0.0242574
0.9950000,0.9950000,0.9950000,-0.0104248,-0.0003802,-0.2230134,-0.0104248,-0.0089853,-0.0238811
0.9975000,0.9975000,0.9975000,-0.0102655,-0.0003773,-0.2213165,-0.0102655,-0.0088530,-0.0235116
1.0000000,1.0000000,1.0000000,-0.0101091,-0.0003743,-0.2196368,-0.0101091,-0.0087230,-0.0231487
1.0025000,1.0025000,1.0025000,-0.0099555,-0.0003714,-0.2179742,-0.0099555,-0.0085953,-0.0227923
1.0050000,1.0050000,1.0050000,-0.0098046,-0.0003685,-0.2163283,-0.0098046,-0.0084698,-0.0224422
1.0075000,1.0075000,1.0075000,-0.0096563,-0.0003656,-0.2146991,-0.0096563,-0.0083465,-0.0220983
1.0100000,1.0100000,1.0100000,-0.0095107,-0.0003627,-0.2130862,-0.0095107,-0.0082254,-0.0217606
1.0125000,1.0125000,1.0125000,-0.0093676,-0.0003599,-0.2114894,-0.0093676,-0.0081063,-0.0214288
1.0150000,1.0150000,1.0150000,-0.0092271,-0.0003572,-0.2099087,-0.0092271,-0.0079893,-0.0211029
1.0175000,1.0175000,1.0175000,-0.0090890,-0.0003544,-0.2083437,-0.0090890,-0.0078743,-0.0207827
1.0200000,1.0200000,1.0200000,-0.0089533,-0.0003517,-0.2067942,-0.0089533,-0.0077613,-0.0204681
1.0225000,1.0225000,1.0225000,-0.0088200,-0.0003490,-0.2052602,-0.0088200,-0.0076502,-0.0201590
1.0250000,1.0250000,1.0250000,-0.0086890,-0.0003463,-0.2037413,-0.0086890,-0.0075410,-0.0198554
1.0275000,1.0275000,1.0275000,-0.0085602,-0.0003437,-0.2022374,-0.0085602,-0.0074337,-0.0195570
1.0300000,1.0300000,1.0300000,-0.0084337,-0.0003410,-0.2007483,-0.0084337,-0.0073282,-0.0192638
1.0325000,1.0325000,1.0325000,-0.0083094,-0.0003385,-0.1992739,-0.0083094,-0.0072245,-0.0189757
1.0350000,1.0350000,1.0350000,-0.0081872,-0.0003359,-0.1978139,-0.0081872,-0.0071225,-0.0186926
1.0375000,1.0375000,1.0375000,-0.0080671,-0.0003334,-0.1963682,-0.0080671,-0.0070223,-0.0184143
1.0400000,1.0400000,1.0400000,-0.0079491,-0.0003308,-0.1949365,-0.0079491,-0.0069237,-0.0181409
1.0425000,1.0425000,1.0425000,-0.0078330,-0.0003284,-0.1935188,-0.0078330,-0.0068268,-0.0178721
1.0450000,1.0450000,1.0450000,-0.0077190,-0.0003259,-0.1921149,-0.0077190,-0.0067315,-0.0176079
1.0475000,1.0475000,1.0475000,-0.0076069,-0.0003235,-0.1907246,-0.0076069,-0.0066378,-0.0173483
1.0500000,1.0500000,1.0500000,-0.0074967,-0.0003210,-0.1893476,-0.0074967,-0.0065456,-0.0170931
1.0525000,1.0525000,1.0525000,-0.0073883,-0.0003187,-0.1879840,-0.0073883,-0.0064550,-0.0168422
1.0550000,1.0550000,1.0550000,-0.0072818,-0.0003163,-0.1866334,-0.0072818,-0.0063659,-0.0165956
1.0575000,1.0575000,1.0575000,-0.0071771,-0.0003139,-0.1852958,-0.0071771,-0.0062782,-0.0163531
1.0600000,1.0600000,1.0600000,-0.0070741,-0.0003116,-0.1839709,-0.0070741,-0.0061920,-0.0161148
1.0625000,1.0625000,1.0625000,-0.0069728,-0.0003093,-0.1826588,-0.0069728,-0.0061072,-0.0158804
1.0650000,1.0650000,1.0650000,-0.0068733,-0.0003071,-0.1813590,-0.0068733,-0.0060238,-0.0156500
1.0675000,1.0675000,1.0675000,-0.0067754,-0.0003048,-0.1800717,-0.0067754,-0.0059417,-0.0154235
1.0700000,1.0700000,1.0700000,-0.0066791,-0.0003026,-0.1787965,-0.0066791,-0.0058610,-0.0152007
1.0725000,1.0725000,1.0725000,-0.0065844,-0.0003004,-0.1775334,-0.0065844,-0.0057816,-0.0149817
1.0750000,1.0750000,1.0750000,-0.0064913,-0.0002982,-0.1762822,-0.0064913,-0.0057035,-0.0147663
1.0775000,1.0775000,1.0775000,-0.0063997,-0.0002960,-0.1750427,-0.0063997,-0.0056266,-0.0145545
1.0800000,1.0800000,1.0800000,-0.0063097,-0.0002939,-0.1738149,-0.0063097,-0.0055510,-0.0143462
1.0825000,1.0825000,1.0825000,-0.0062211,-0.0002917,-0.1725985,-0.0062211,-0.0054766,-0.0141414
1.0850000,1.0850000,1.0850000,-0.0061340,-0.0002896,-0.1713935,-0.0061340,-0.0054034,-0.0139399
1.0875000,1.0875000,1.0875000,-0.0060482,-0.0002876,-0.1701998,-0.0060482,-0.0053314,-0.0137417
1.0900000,1.0900000,1.0900000,-0.0059639,-0.0002855,-0.1690171,-0.0059639,-0.0052605,-0.0135468
1.0925000,1.0925000,1.0925000,-0.0058810,-0.0002835,-0.1678454,-0.0058810,-0.0051908,-0.0133551
1.0950000,1.0950000,1.0950000,-0.0057994,-0.0002814,-0.1666845,-0.0057994,-0.0051221,-0.0131665
1.0975000,1.0975000,1.0975000,-0.0057191,-0.0002794,-0.1655344,-0.0057191,-0.0050546,-0.0129810
1.1000000,1.1000000,1.1000000,-0.0056401,-0.0002774,-0.1643948,-0.0056401,-0.0049881,-0.0127985
1.1025000,1.1025000,1.1025000,-0.0055624,-0.0002755,-0.1632657,-0.0055624,-0.0049226,-0.0126190
1.1050000,1.1050000,1.1050000,-0.0054859,-0.0002735,-0.1621469,-0.0054859,-0.0048582,-0.0124424
1.1075000,1.1075000,1.1075000,-0.0054107,-0.0002716,-0.1610384,-0.0054107,-0.0047948,-0.0122686
1.1100000,1.1100000,1.1100000,-0.0053367,-0.0002697,-0.1599400,-0.0053367,-0.0047324,-0.0120976
1.1125000,1.1125000,1.1125000,-0.0052638,-0.0002678,-0.1588515,-0.0052638,-0.0046709,-0.0119294
1.1150000,1.1150000,1.1150000,-0.0051921,-0.0002659,-0.1577730,-0.0051921,-0.0046105,-0.0117639
1.1175000,1.1175000,1.1175000,-0.0051216,-0.0002641,-0.1567042,-0.0051216,-0.0045509,-0.0116010
1.1200000,1.1200000,1.1200000,-0.0050522,-0.0002622,-0.1556451,-0.0050522,-0.0044923,-0.0114408
1.1225000,1.1225000,1.1225000,-0.0049838,-0.0002604,-0.1545955,-0.0049838,-0.0044346,-0.0112831
1.1250000,1.1250000,1.1250000,-0.0049166,-0.0002586,-0.1535554,-0.0049166,-0.0043778,-0.0111279
1.1275000,1.1275000,1.1275000,-0.0048504,-0.0002568,-0.1525246,-0.0048504,-0.0043218,-0.0109751
1.1300000,1.1300000,1.1300000,-0.0047852,-0.0002550,-0.1515030,-0.0047852,-0.0042667,-0.0108248
1.1325000,1.1325000,1.1325000,-0.0047211,-0.0002533,-0.1504906,-0.0047211,-0.0042125,-0.0106769
1.1350000,1.1350000,1.1350000,-0.0046580,-0.0002515,-0.1494871,-0.0046580,-0.0041590,-0.0105312
1.1375000,1.1375000,1.1375000,-0.0045958,-0.0002498,-0.1484926,-0.0045958,-0.0041064,-0.0103879
1.1400000,1.1400000,1.1400000,-0.0045346,-0.0002481,-0.1475070,-0.0045346,-0.0040546,-0.0102468
1.1425000,1.1425000,1.1425000,-0.0044744,-0.0002464,-0.1465300,-0.0044744,-0.0040036,-0.0101080
1.1450000,1.1450000,1.1450000,-0.0044151,-0.0002447,-0.1455617,-0.0044151,-0.0039533,-0.0099713
1.1475000,1.1475000,1.1475000,-0.0043567,-0.0002431,-0.1446020,-0.0043567,-0.0039038,-0.0098367
1.1500000,1.1500000,1.1500000,-0.0042993,-0.0002414,-0.1436506,-0.0042993,-0.0038551,-0.0097043
1.1525000,1.1525000,1.1525000,-0.0042427,-0.0002398,-0.1427076,-0.0042427,-0.0038071,-0.0095739
1.1550000,1.1550000,1.1550000,-0.0041869,-0.0002382,-0.1417729,-0.0041869,-0.0037598,-0.0094455
1.1575000,1.1575000,1.1575000,-0.0041321,-0.0002366,-0.1408464,-0.0041321,-0.0037132,-0.0093191
1.1600000,1.1600000,1.1600000,-0.0040780,-0.0002350,-0.1399279,-0.0040780,-0.0036673,-0.0091946
1.1625000,1.1625000,1.1625000,-0.0040248,-0.0002334,-0.1390174,-0.0040248,-0.0036221,-0.0090721
1.1650000,1.1650000,1.1650000,-0.0039724,-0.0002318,-0.1381148,-0.0039724,-0.0035775,-0.0089514
1.1675000,1.1675000,1.1675000,-0.0039208,-0.0002303,-0.1372200,-0.0039208,-0.0035336,-0.0088326
1.1700000,1.1700000,1.1700000,-0.0038700,-0.0002288,-0.1363330,-0.0038700,-0.0034904,-0.0087156
1.1725000,1.1725000,1.1725000,-0.0038200,-0.0002272,-0.1354536,-0.0038200,-0.0034478,-0.0086004
1.1750000,1.1750000,1.1750000,-0.0037707,-0.0002257,-0.1345818,-0.0037707,-0.0034058,-0.0084869
1.1775000,1.1775000,1.1775000,-0.0037221,-0.0002242,-0.1337174,-0.0037221,-0.0033645,-0.0083752
1.1800000,1.1800000,1.1800000,-0.0036743,-0.0002228,-0.1328605,-0.0036743,-0.0033237,-0.0082652
1.1825000,1.1825000,1.1825000,-0.0036272,-0.0002213,-0.1320109,-0.0036272,-0.0032836,-0.0081568
1.1850000,1.1850000,1.1850000,-0.0035808,-0.0002199,-0.1311685,-0.0035808,-0.0032440,-0.0080501
1.1875000,1.1875000,1.1875000,-0.0035351,-0.0002184,-0.1303333,-0.0035351,-0.0032050,-0.0079449
1.1900000,1.1900000,1.1900000,-0.0034900,-0.0002170,-0.1295052,-0.0034900,-0.0031665,-0.0078414
1.1925000,1.1925000,1.1925000,-0.0034457,-0.0002156,-0.1286841,-0.0034457,-0.0031287,-0.0077394
1.1950000,1.1950000,1.1950000,-0.0034020,-0.0002142,-0.1278700,-0.0034020,-0.0030913,-0.0076389
1.1975000,1.1975000,1.1975000,-0.0033589,-0.0002128,-0.1270627,-0.0033589,-0.0030545,-0.0075400
1.2000000,1.2000000,1.2000000,-0.0033165,-0.0002114,-0.1262622,-0.0033165,-0.0030183,-0.0074425
1.2025000,1.2025000,1.2025000,-0.0032747,-0.0002100,-0.1254685,-0.0032747,-0.0029825,-0.0073465
1.2050000,1.2050000,1.2050000,-0.0032335,-0.0002087,-0.1246814,-0.0032335,-0.0029473,-0.0072518
1.2075000,1.2075000,1.2075000,-0.0031929,-0.0002073,-0.1239009,-0.0031929,-0.0029125,-0.0071586
1.2100000,1.2100000,1.2100000,-0.0031529,-0.0002060,-0.1231269,-0.0031529,-0.0028783,-0.0070668
1.2125000,1.2125000,1.2125000,-0.0031135,-0.0002047,-0.1223593,-0.0031135,-0.0028445,-0.0069763
1.2150000,1.2150000,1.2150000,-0.0030747,-0.0002034,-0.1215982,-0.0030747,-0.0028113,-0.0068872
1.2175000,1.2175000,1.2175000,-0.0030365,-0.0002021,-0.1208433,-0.0030365,-0.0027785,-0.0067994
1.2200000,1.2200000,1.2200000,-0.0029988,-0.0002008,-0.1200947,-0.0029988,-0.0027461,-0.0067128
1.2225000,1.2225000,1.2225000,-0.0029616,-0.0001995,-0.1193523,-0.0029616,-0.0027142,-0.0066275
1.2250000,1.2250000,1.2250000,-0.0029250,-0.0001982,-0.1186160,-0.0029250,-0.0026828,-0.0065435
1.2275000,1.2275000,1.2275000,-0.0028889,-0.0001970,-0.1178858,-0.0028889,-0.0026518,-0.0064607
1.2300000,1.2300000,1.2300000,-0.0028533,-0.0001957,-0.1171616,-0.0028533,-0.0026212,-0.0063791
1.2325000,1.2325000,1.2325000,-0.0028183,-0.0001945,-0.1164433,-0.0028183,-0.0025911,-0.0062987
1.2350000,1.2350000,1.2350000,-0.0027837,-0.0001933,-0.1157308,-0.0027837,-0.0025614,-0.0062194
1.2375000,1.2375000,1.2375000,-0.0027496,-0.0001921,-0.1150242,-0.0027496,-0.0025320,-0.0061413
1.2400000,1.2400000,1.2400000,-0.0027160,-0.0001909,-0.1143234,-0.0027160,-0.0025031,-0.0060644
1.2425000,1.2425000,1.2425000,-0.0026829,-0.0001897,-0.1136282,-0.0026829,-0.0024746,-0.0059885
1.2450000,1.2450000,1.2450000,-0.0026503,-0.0001885,-0.1129387,-0.0026503,-0.0024465,-0.0059137
1.2475000,1.2475000,1.2475000,-0.0026182,-0.0001873,-0.1122547,-0.0026182,-0.0024188,-0.0058400
1.2500000,1.2500000,1.2500000,-0.0025864,-0.0001862,-0.1115763,-0.0025864,-0.0023914,-0.0057674
1.2525000,1.2525000,1.2525000,-0.0025552,-0.0001850,-0.1109033,-0.0025552,-0.0023645,-0.0056958
1.2550000,1.2550000,1.2550000,-0.0025244,-0.0001839,-0.1102358,-0.0025244,-0.0023379,-0.0056252
1.2575000,1.2575000,1.2575000,-0.0024940,-0.0001827,-0.1095736,-0.0024940,-0.0023116,-0.0055556
1.2600000,1.2600000,1.2600000,-0.0024640,-0.0001816,-0.1089167,-0.0024640,-0.0022857,-0.0054870
1.2625000,1.2625000,1.2625000,-0.0024345,-0.0001805,-0.1082651,-0.0024345,-0.0022602,-0.0054194
1.2650000,1.2650000,1.2650000,-0.0024053,-0.0001794,-0.1076187,-0.0024053,-0.0022350,-0.0053527
1.2675000,1.2675000,1.2675000,-0.0023766,-0.0001783,-0.1069774,-0.0023766,-0.0022102,-0.0052870
1.2700000,1.2700000,1.2700000,-0.0023483,-0.0001772,-0.1063412,-0.0023483,-0.0021857,-0.0052222
1.2725000,1.2725000,1.2725000,-0.0023204,-0.0001761,-0.1057100,-0.0023204,-0.0021615,-0.0051583
1.2750000,1.2750000,1.2750000,-0.0022928,-0.0001751,-0.1050839,-0.0022928,-0.0021376,-0.0050953
1.2775000,1.2775000,1.2775000,-0.0022657,-0.0001740,-0.1044627,-0.0022657,-0.0021141,-0.0050332
1.2800000,1.2800000,1.2800000,-0.0022389,-0.0001729,-0.1038464,-0.0022389,-0.0020909,-0.0049720
1.2825000,1.2825000,1.2825000,-0.0022125,-0.0001719,-0.1032349,-0.0022125,-0.0020679,-0.0049116
1.2850000,1.2850000,1.2850000,-0.0021864,-0.0001709,-0.1026283,-0.0021864,-0.0020453,-0.0048520
1.2875000,1.2875000,1.2875000,-0.0021607,-0.0001698,-0.1020264,-0.0021607,-0.0020230,-0.0047933
1.2900000,1.2900000,1.2900000,-0.0021354,-0.0001688,-0.1014292,-0.0021354,-0.0020010,-0.0047354
1.2925000,1.2925000,1.2925000,-0.0021104,-0.0001678,-0.1008367,-0.0021104,-0.0019793,-0.0046783
1.2950000,1.2950000,1.2950000,-0.0020857,-0.0001668,-0.1002488,-0.0020857,-0.0019579,-0.0046220
1.2975000,1.2975000,1.2975000,-0.0020614,-0.0001658,-0.0996654,-0.0020614,-0.0019367,-0.0045665
1.3000000,1.3000000,1.3000000,-0.0020374,-0.0001648,-0.0990866,-0.0020374,-0.0019158,-0.0045117
1.3025000,1.3025000,1.3025000,-0.0020138,-0.0001638,-0.0985123,-0.0020138,-0.0018952,-0.0044577
1.3050000,1.3050000,1.3050000,-0.0019904,-0.0001629,-0.0979424,-0.0019904,-0.0018749,-0.0044044
1.3075000,1.3075000,1.3075000,-0.0019674,-0.0001619,-0.0973769,-0.0019674,-0.0018548,-0.0043519
1.3100000,1.3100000,1.3100000,-0.0019447,-0.0001609,-0.0968157,-0.0019447,-0.0018350,-0.0043001
1.3125000,1.3125000,1.3125000,-0.0019223,-0.0001600,-0.0962589,-0.0019223,-0.0018155,-0.0042490
1.3150000,1.3150000,1.3150000,-0.0019002,-0.0001591,-0.0957064,-0.0019002,-0.0017962,-0.0041985
1.3175000,1.3175000,1.3175000,-0.0018784,-0.0001581,-0.0951580,-0.0018784,-0.0017771,-0.0041488
1.3200000,1.3200000,1.3200000,-0.0018568,-0.0001572,-0.0946139,-0.0018568,-0.0017583,-0.0040997
1.3225000,1.3225000,1.3225000,-0.0018356,-0.0001563,-0.0940739,-0.0018356,-0.0017398,-0.0040513
1.3250000,1.3250000,1.3250000,-0.0018147,-0.0001554,-0.0935380,-0.0018147,-0.0017214,-0.0040036
1.3275000,1.3275000,1.3275000,-0.0017940,-0.0001545,-0.0930062,-0.0017940,-0.0017034,-0.0039565
1.3300000,1.3300000,1.3300000,-0.0017736,-0.0001536,-0.0924784,-0.0017736,-0.0016855,-0.0039101
1.3325000,1.3325000,1.3325000,-0.0017535,-0.0001527,-0.0919546,-0.0017535,-0.0016679,-0.0038642
1.3350000,1.3350000,1.3350000,-0.0017336,-0.0001518,-0.0914348,-0.0017336,-0.0016505,-0.0038190
1.3375000,1.3375000,1.3375000,-0.0017140,-0.0001509,-0.0909189,-0.0017140,-0.0016333,-0.0037744
1.3400000,1.3400000,1.3400000,-0.0016947,-0.0001500,-0.0904069,-0.0016947,-0.0016163,-0.0037304
1.3425000,1.3425000,1.3425000,-0.0016756,-0.0001492,-0.0898987,-0.0016756,-0.0015996,-0.0036869
1.3450000,1.3450000,1.3450000,-0.0016568,-0.0001483,-0.0893943,-0.0016568,-0.0015831,-0.0036441
1.3475000,1.3475000,1.3475000,-0.0016382,-0.0001475,-0.0888937,-0.0016382,-0.0015667,-0.0036018
1.3500000,1.3500000,1.3500000,-0.0016198,-0.0001466,-0.0883968,-0.0016198,-0.0015506,-0.0035601
1.3525000,1.3525000,1.3525000,-0.0016017,-0.0001458,-0.0879037,-0.0016017,-0.0015347,-0.0035189
1.3550000,1.3550000,1.3550000,-0.0015839,-0.0001450,-0.0874142,-0.0015839,-0.0015190,-0.0034783
1.3575000,1.3575000,1.3575000,-0.0015662,-0.0001441,-0.0869283,-0.0015662,-0.0015035,-0.0034382
1.3600000,1.3600000,1.3600000,-0.0015488,-0.0001433,-0.0864461,-0.0015488,-0.0014881,-0.0033986
1.3625000,1.3625000,1.3625000,-0.0015317,-0.0001425,-0.0859674,-0.0015317,-0.0014730,-0.0033596
1.3650000,1.3650000,1.3650000,-0.0015147,-0.0001417,-0.0854922,-0.0015147,-0.0014580,-0.0033211
1.3675000,1.3675000,1.3675000,-0.0014980,-0.0001409,-0.0850206,-0.0014980,-0.0014433,-0.0032830
1.3700000,1.3700000,1.3700000,-0.0014814,-0.0001401,-0.0845524,-0.0014814,-0.0014287,-0.0032455
1.3725000,1.3725000,1.3725000,-0.0014651,-0.0001393,-0.0840877,-0.0014651,-0.0014143,-0.0032085
1.3750000,1.3750000,1.3750000,-0.0014490,-0.0001385,-0.0836263,-0.0014490,-0.0014001,-0.0031719
1.3775000,1.3775000,1.3775000,-0.0014331,-0.0001377,-0.0831684,-0.0014331,-0.0013860,-0.0031359
1.3800000,1.3800000,1.3800000,-0.0014174,-0.0001370,-0.0827137,-0.0014174,-0.0013721,-0.0031002
1.3825000,1.3825000,1.3825000,-0.0014020,-0.0001362,-0.0822624,-0.0014020,-0.0013584,-0.0030651
1.3850000,1.3850000,1.3850000,-0.0013867,-0.0001355,-0.0818144,-0.0013867,-0.0013449,-0.0030304
1.3875000,1.3875000,1.3875000,-0.0013716,-0.0001347,-0.0813696,-0.0013716,-0.0013315,-0.0029962
1.3900000,1.3900000,1.3900000,-0.0013567,-0.0001340,-0.0809281,-0.0013567,-0.0013183,-0.0029624
1.3925000,1.3925000,1.3925000,-0.0013419,-0.0001332,-0.0804897,-0.0013419,-0.0013053,-0.0029290
1.3950000,1.3950000,1.3950000,-0.0013274,-0.0001325,-0.0800546,-0.0013274,-0.0012924,-0.0028961
1.3975000,1.3975000,1.3975000,-0.0013131,-0.0001317,-0.0796225,-0.0013131,-0.0012796,-0.0028636
1.4000000,1.4000000,1.4000000,-0.0012989,-0.0001310,-0.0791936,-0.0012989,-0.0012671,-0.0028315
1.4025000,1.4025000,1.4025000,-0.0012849,-0.0001303,-0.0787677,-0.0012849,-0.0012546,-0.0027998
1.4050000,1.4050000,1.4050000,-0.0012711,-0.0001296,-0.0783449,-0.0012711,-0.0012423,-0.0027685
1.4075000,1.4075000,1.4075000,-0.0012575,-0.0001289,-0.0779251,-0.0012575,-0.0012302,-0.0027376
1.4100000,1.4100000,1.4100000,-0.0012440,-0.0001282,-0.0775084,-0.0012440,-0.0012182,-0.0027071
1.4125000,1.4125000,1.4125000,-0.0012307,-0.0001275,-0.0770945,-0.0012307,-0.0012064,-0.0026770
1.4150000,1.4150000,1.4150000,-0.0012176,-0.0001268,-0.0766837,-0.0012176,-0.0011947,-0.0026473
1.4175000,1.4175000,1.4175000,-0.0012046,-0.0001261,-0.0762757,-0.0012046,-0.0011831,-0.0026179
1.4200000,1.4200000,1.4200000,-0.0011918,-0.0001254,-0.0758707,-0.0011918,-0.0011717,-0.0025890
1.4225000,1.4225000,1.4225000,-0.0011791,-0.0001247,-0.0754685,-0.0011791,-0.0011604,-0.0025604
1.4250000,1.4250000,1.4250000,-0.0011666,-0.0001240,-0.0750692,-0.0011666,-0.0011492,-0.0025321
1.4275000,1.4275000,1.4275000,-0.0011543,-0.0001234,-0.0746727,-0.0011543,-0.0011382,-0.0025042
1.4300000,1.4300000,1.4300000,-0.0011421,-0.0001227,-0.0742789,-0.0011421,-0.0011273,-0.0024767
1.4325000,1.4325000,1.4325000,-0.0011301,-0.0001221,-0.0738880,-0.0011301,-0.0011165,-0.0024495
1.4350000,1.4350000,1.4350000,-0.0011182,-0.0001214,-0.0734998,-0.0011182,-0.0011059,-0.0024226
1.4375000,1.4375000,1.4375000,-0.0011064,-0.0001207,-0.0731143,-0.0011064,-0.0010954,-0.0023961
1.4400000,1.4400000,1.4400000,-0.0010948,-0.0001201,-0.0727315,-0.0010948,-0.0010850,-0.0023699
1.4425000,1.4425000,1.4425000,-0.0010834,-0.0001195,-0.0723513,-0.0010834,-0.0010747,-0.0023440
1.4450000,1.4450000,1.4450000,-0.0010721,-0.0001188,-0.0719739,-0.0010721,-0.0010646,-0.0023185
1.4475000,1.4475000,1.4475000,-0.0010609,-0.0001182,-0.0715990,-0.0010609,-0.0010545,-0.0022933
1.4500000,1.4500000,1.4500000,-0.0010498,-0.0001176,-0.0712268,-0.0010498,-0.0010446,-0.0022684
1.4525000,1.4525000,1.4525000,-0.0010389,-0.0001169,-0.0708571,-0.0010389,-0.0010348,-0.0022438
1.4550000,1.4550000,1.4550000,-0.0010281,-0.0001163,-0.0704900,-0.0010281,-0.0010251,-0.0022195
1.4575000,1.4575000,1.4575000,-0.0010175,-0.0001157,-0.0701254,-0.0010175,-0.0010155,-0.0021954
1.4600000,1.4600000,1.4600000,-0.0010070,-0.0001151,-0.0697633,-0.0010070,-0.0010061,-0.0021717
1.4625000,1.4625000,1.4625000,-0.0009966,-0.0001145,-0.0694038,-0.0009966,-0.0009967,-0.0021483
1.4650000,1.4650000,1.4650000,-0.0009863,-0.0001139,-0.0690467,-0.0009863,-0.0009875,-0.0021252
1.4675000,1.4675000,1.4675000,-0.0009762,-0.0001133,-0.0686920,-0.0009762,-0.0009783,-0.0021023
1.4700000,1.4700000,1.4700000,-0.0009661,-0.0001127,-0.0683398,-0.0009661,-0.0009693,-0.0020798
1.4725000,1.4725000,1.4725000,-0.0009562,-0.0001121,-0.0679900,-0.0009562,-0.0009603,-0.0020575
1.4750000,1.4750000,1.4750000,-0.0009465,-0.0001115,-0.0676426,-0.0009465,-0.0009515,-0.0020355
1.4775000,1.4775000,1.4775000,-0.0009368,-0.0001109,-0.0672975,-0.0009368,-0.0009428,-0.0020137
1.4800000,1.4800000,1.4800000,-0.0009272,-0.0001104,-0.0669548,-0.0009272,-0.0009341,-0.0019922
1.4825000,1.4825000,1.4825000,-0.0009178,-0.0001098,-0.0666144,-0.0009178,-0.0009256,-0.0019710
1.4850000,1.4850000,1.4850000,-0.0009085,-0.0001092,-0.0662763,-0.0009085,-0.0009171,-0.0019500
1.4875000,1.4875000,1.4875000,-0.0008993,-0.0001087,-0.0659405,-0.0008993,-0.0009088,-0.0019293
1.4900000,1.4900000,1.4900000,-0.0008902,-0.0001081,-0.0656070,-0.0008902,-0.0009005,-0.0019088
1.4925000,1.4925000,1.4925000,-0.0008812,-0.0001075,-0.0652757,-0.0008812,-0.0008924,-0.0018886
1.4950000,1.4950000,1.4950000,-0.0008723,-0.0001070,-0.0649467,-0.0008723,-0.0008843,-0.0018686
1.4975000,1.4975000,1.4975000,-0.0008635,-0.0001064,-0.0646199,-0.0008635,-0.0008763,-0.0018489
1.5000000,1.5000000,1.5000000,-0.0008548,-0.0001059,-0.0642952,-0.0008548,-0.0008684,-0.0018294
1.5025000,1.5025000,1.5025000,-0.0008462,-0.0001054,-0.0639728,-0.0008462,-0.0008606,-0.0018101
1.5050000,1.5050000,1.5050000,-0.0008377,-0.0001048,-0.0636525,-0.0008377,-0.0008529,-0.0017911
1.5075000,1.5075000,1.5075000,-0.0008293,-0.0001043,-0.0633343,-0.0008293,-0.0008453,-0.0017723
1.5100000,1.5100000,1.5100000,-0.0008211,-0.0001038,-0.0630182,-0.0008211,-0.0008377,-0.0017537
1.5125000,1.5125000,1.5125000,-0.0008129,-0.0001032,-0.0627043,-0.0008129,-0.0008303,-0.0017353
1.5150000,1.5150000,1.5150000,-0.0008048,-0.0001027,-0.0623924,-0.0008048,-0.0008229,-0.0017172
1.5175000,1.5175000,1.5175000,-0.0007968,-0.0001022,-0.0620826,-0.0007968,-0.0008156,-0.0016992
1.5200000,1.5200000,1.5200000,-0.0007889,-0.0001017,-0.0617749,-0.0007889,-0.0008084,-0.0016815
1.5225000,1.5225000,1.5225000,-0.0007811,-0.0001012,-0.0614692,-0.0007811,-0.0008012,-0.0016640
1.5250000,1.5250000,1.5250000,-0.0007733,-0.0001006,-0.0611655,-0.0007733,-0.0007942,-0.0016467
1.5275000,1.5275000,1.5275000,-0.0007657,-0.0001001,-0.0608638,-0.0007657,-0.0007872,-0.0016296
1.5300000,1.5300000,1.5300000,-0.0007581,-0.0000996,-0.0605641,-0.0007581,-0.0007803,-0.0016127
1.5325000,1.5325000,1.5325000,-0.0007507,-0.0000991,-0.0602664,-0.0007507,-0.0007734,-0.0015960
1.5350000,1.5350000,1.5350000,-0.0007433,-0.0000986,-0.0599706,-0.0007433,-0.0007667,-0.0015795
1.5375000,1.5375000,1.5375000,-0.0007360,-0.0000981,-0.0596767,-0.0007360,-0.0007600,-0.0015632
1.5400000,1.5400000,1.5400000,-0.0007288,-0.0000977,-0.0593848,-0.0007288,-0.0007534,-0.0015471
1.5425000,1.5425000,1.5425000,-0.0007217,-0.0000972,-0.0590948,-0.0007217,-0.0007468,-0.0015311
1.5450000,1.5450000,1.5450000,-0.0007146,-0.0000967,-0.0588066,-0.0007146,-0.0007404,-0.0015154
1.5475000,1.5475000,1.5475000,-0.0007077,-0.0000962,-0.0585203,-0.0007077,-0.0007340,-0.0014998
1.5500000,1.5500000,1.5500000,-0.0007008,-0.0000957,-0.0582359,-0.0007008,-0.0007276,-0.0014844
1.5525000,1.5525000,1.5525000,-0.0006940,-0.0000953,-0.0579534,-0.0006940,-0.0007214,-0.0014692
1.5550000,1.5550000,1.5550000,-0.0006873,-0.0000948,-0.0576726,-0.0006873,-0.0007152,-0.0014542
1.5575000,1.5575000,1.5575000,-0.0006806,-0.0000943,-0.0573937,-0.0006806,-0.0007090,-0.0014393
1.5600000,1.5600000,1.5600000,-0.0006740,-0.0000939,-0.0571166,-0.0006740,-0.0007030,-0.0014247
1.5625000,1.5625000,1.5625000,-0.0006675,-0.0000934,-0.0568412,-0.0006675,-0.0006970,-0.0014102
1.5650000,1.5650000,1.5650000,-0.0006611,-0.0000929,-0.0565676,-0.0006611,-0.0006910,-0.0013958
1.5675000,1.5675000,1.5675000,-0.0006547,-0.0000925,-0.0562958,-0.0006547,-0.0006851,-0.0013816
1.5700000,1.5700000,1.5700000,-0.0006484,-0.0000920,-0.0560257,-0.0006484,-0.0006793,-0.0013676
1.5725000,1.5725000,1.5725000,-0.0006422,-0.0000916,-0.0557574,-0.0006422,-0.0006736,-0.0013537
1.5750000,1.5750000,1.5750000,-0.0006361,-0.0000911,-0.0554908,-0.0006361,-0.0006679,-0.0013400
1.5775000,1.5775000,1.5775000,-0.0006300,-0.0000907,-0.0552258,-0.0006300,-0.0006623,-0.0013265
1.5800000,1.5800000,1.5800000,-0.0006240,-0.0000903,-0.0549626,-0.0006240,-0.0006567,-0.0013131
1.5825000,1.5825000,1.5825000,-0.0006180,-0.0000898,-0.0547010,-0.0006180,-0.0006512,-0.0012999
1.5850000,1.5850000,1.5850000,-0.0006122,-0.0000894,-0.0544411,-0.0006122,-0.0006457,-0.0012868
1.5875000,1.5875000,1.5875000,-0.0006064,-0.0000889,-0.0541828,-0.0006064,-0.0006403,-0.0012738
1.5900000,1.5900000,1.5900000,-0.0006006,-0.0000885,-0.0539262,-0.0006006,-0.0006350,-0.0012611
1.5925000,1.5925000,1.5925000,-0.0005949,-0.0000881,-0.0536711,-0.0005949,-0.0006297,-0.0012484
1.5950000,1.5950000,1.5950000,-0.0005893,-0.0000877,-0.0534177,-0.0005893,-0.0006245,-0.0012359
1.5975000,1.5975000,1.5975000,-0.0005837,-0.0000872,-0.0531659,-0.0005837,-0.0006193,-0.0012235
