# r[nm],d[nm],daligned[nm],U(d)[kj/mol],V(d)[e/nm],Uslab(d)[kJ/mol],UC(d)[kJ/mol],UK(d)[kJ/mol],UCl(d)[kJ/mol]
0.1850000,0.1850000,0.1850000,1779.9855321,0.8015073,86.2099517,1779.9855321,1112.6784220,inf
0.1875000,0.1875000,0.1875000,1551.5973850,0.7908819,75.9855213,1551.5973850,969.5402707,inf
0.1900000,0.1900000,0.1900000,1353.9880421,0.7801094,67.1527305,1353.9880421,845.7847079,inf
0.1925000,0.1925000,0.1925000,1182.8137196,0.7692263,59.5041759,1182.8137196,738.6655635,inf
0.1950000,0.1950000,0.1950000,1034.3732979,0.7582656,52.8628995,1034.3732979,645.8444486,inf
0.1975000,0.1975000,0.1975000,905.5086219,0.7472570,47.0772765,905.5086219,565.3272682,inf
0.2000000,0.2000000,0.2000000,793.5210149,0.7362272,42.0168087,793.5210149,495.4110939,inf
0.2025000,0.2025000,0.2025000,696.1012441,0.7252003,37.5687165,696.1012441,434.6396272,inf
0.2050000,0.2050000,0.2050000,611.2706692,0.7141976,33.6356534,611.2706692,381.7657973,inf
0.2075000,0.2075000,0.2075000,537.3317039,0.7032383,30.1348782,537.3317039,335.7203004,inf
0.2100000,0.2100000,0.2100000,472.8260479,0.6923393,26.9983928,472.8260479,295.5850876,inf
0.2125000,0.2125000,0.2125000,416.4994143,0.6815156,24.1727252,416.4994143,260.5709882,1808.6275867
0.2150000,0.2150000,0.2150000,367.2716942,0.6707805,21.6173719,367.2716942,229.9987805,1594.8773060
0.2175000,0.2175000,0.2175000,324.2116838,0.6601455,19.3021256,324.2116838,203.2831385,1407.5880064
0.2200000,0.2200000,0.2200000,286.5156409,0.6496207,17.2041846,286.5156409,179.9189668,1243.3386926
0.2225000,0.2225000,0.2225000,253.4890618,0.6392147,15.3056392,253.4890618,159.4697052,1099.1702136
0.2250000,0.2250000,0.2250000,224.5311630,0.6289341,13.5914503,224.5311630,141.5572212,972.5202079
0.2275000,0.2275000,0.2275000,199.1216311,0.6187830,12.0479170,199.1216311,125.8528607,861.1676043
0.2300000,0.2300000,0.2300000,176.8092541,0.6087600,10.6616895,176.8092541,112.0692368,763.1852143
0.2325000,0.2325000,0.2325000,157.2020413,0.5988579,9.4193376,157.2020413,99.9527478,676.8991879
0.2350000,0.2350000,0.2350000,139.9583217,0.5890780,8.3073629,139.9583217,89.2776923,600.8542957
0.2375000,0.2375000,0.2375000,124.7783415,0.5794624,7.3124695,124.7783415,79.8433526,533.7841674
0.2400000,0.2400000,0.2400000,111.3965726,0.5700768,6.4219209,111.3965726,71.4744986,474.5857484
0.2425000,0.2425000,0.2425000,99.5761403,0.5608196,5.6238573,99.5761403,64.0235815,422.2973535
0.2450000,0.2450000,0.2450000,89.1069588,0.5510593,4.9075008,89.1069588,57.3713216,376.0797902
0.2475000,0.2475000,0.2475000,79.8071916,0.5394091,4.2632252,79.8071916,51.4234725,335.2001027
0.2500000,0.2500000,0.2500000,71.5249141,0.5240286,3.6825066,71.5249141,46.1045602,299.0175500
0.2525000,0.2525000,0.2525000,64.1364807,0.5033973,3.1578000,64.1364807,41.3513024,266.9714078
0.2550000,0.2550000,0.2550000,57.5410499,0.4769935,2.6823918,57.5410499,37.1078109,238.5698913
0.2575000,0.2575000,0.2575000,51.6537832,0.4454260,2.2502673,51.6537832,33.3230183,213.3789009
0.2600000,0.2600000,0.2600000,46.4004202,0.4100891,1.8560254,46.4004202,29.9497082,191.0098921
0.2625000,0.2625000,0.2625000,41.7141414,0.3726798,1.4948590,41.7141414,26.9443412,171.1099885
0.2650000,0.2650000,0.2650000,37.5341927,0.3348222,1.1625938,37.5341927,24.2671037,153.3612448
0.2675000,0.2675000,0.2675000,33.8054126,0.2978623,0.8557494,33.8054126,21.8818967,137.4908457
0.2700000,0.2700000,0.2700000,30.4780513,0.2627986,0.5715721,30.4780513,19.7561903,123.2803825
0.2725000,0.2725000,0.2725000,27.5075768,0.2302880,0.3079996,27.5075768,17.8607762,110.5598150
0.2750000,0.2750000,0.2750000,24.8543640,0.2006859,0.0635473,24.8543640,16.1694869,99.1889470
0.2775000,0.2775000,0.2775000,22.4832629,0.1740990,-0.1628683,22.4832629,14.6589295,89.0409398
0.2800000,0.2800000,0.2800000,20.3630965,0.1504426,-0.3721421,20.3630965,13.3082536,79.9950475
0.2825000,0.2825000,0.2825000,18.4661546,0.1295011,-0.5651933,18.4661546,12.0989443,71.9360247
0.2850000,0.2850000,0.2850000,16.7677408,0.1109862,-0.7431403,16.7677408,11.0146252,64.7557768
0.2875000,0.2875000,0.2875000,15.2458014,0.0945868,-0.9073950,15.2458014,10.0408634,58.3548687
0.2900000,0.2900000,0.2900000,13.8806375,0.0800052,-1.0596446,13.8806375,9.1649770,52.6432705
0.2925000,0.2925000,0.2925000,12.6546797,0.0669761,-1.2017128,12.6546797,8.3758510,47.5404413
0.2950000,0.2950000,0.2950000,11.5523023,0.0552722,-1.3353379,11.5523023,7.6637639,42.9749985
0.2975000,0.2975000,0.2975000,10.5596570,0.0446996,-1.4619367,10.5596570,7.0202228,38.8841630
0.3000000,0.3000000,0.3000000,9.6645146,0.0350925,-1.5824315,9.6645146,6.4377999,35.2130845
0.3025000,0.3025000,0.3025000,8.8561111,0.0263081,-1.6971909,8.8561111,5.9099620,31.9140886
0.3050000,0.3050000,0.3050000,8.1249944,0.0182255,-1.8060884,8.1249944,5.4308925,28.9458605
0.3075000,0.3075000,0.3075000,7.4628718,0.0107455,-1.9086450,7.4628718,4.9953091,26.2725887
0.3100000,0.3100000,0.3100000,6.8624552,0.0037906,-2.0042048,6.8624552,4.5982997,23.8631119
0.3125000,0.3125000,0.3125000,6.3173022,-0.0026984,-2.0920982,6.3173022,4.2352047,21.6901235
0.3150000,0.3150000,0.3150000,5.8216533,-0.0087679,-2.1717631,5.8216533,3.9015724,19.7294850
0.3175000,0.3175000,0.3175000,5.3702734,-0.0144588,-2.2428175,5.3702734,3.5931985,17.9596744
0.3200000,0.3200000,0.3200000,4.9583116,-0.0198135,-2.3050868,4.9583116,3.3062351,16.3613716
0.3225000,0.3225000,0.3225000,4.5812017,-0.0248787,-2.3585980,4.5812017,3.0373347,14.9171607
0.3250000,0.3250000,0.3250000,4.2346195,-0.0297037,-2.4035547,4.2346195,2.7837815,13.6113201
0.3275000,0.3275000,0.3275000,3.9145030,-0.0343345,-2.4403013,3.9145030,2.5435695,12.4296700
0.3300000,0.3300000,0.3300000,3.6171273,-0.0388049,-2.4692861,3.6171273,2.3153996,11.3594533
0.3325000,0.3325000,0.3325000,3.3392078,-0.0431299,-2.4910268,3.3392078,2.0985960,10.3892307
0.3350000,0.3350000,0.3350000,3.0780008,-0.0473021,-2.5060806,3.0780008,1.8929545,9.5087803
0.3375000,0.3375000,0.3375000,2.8313690,-0.0512936,-2.5150205,2.8313690,1.6985558,8.7089942
0.3400000,0.3400000,0.3400000,2.5977907,-0.0550617,-2.5184172,2.5977907,1.5155765,7.9817694
0.3425000,0.3425000,0.3425000,2.3763040,-0.0585571,-2.5168252,2.3763040,1.3441284,7.3198919
0.3450000,0.3450000,0.3450000,2.1663953,-0.0617319,-2.5107741,2.1663953,1.1841485,6.7169148
0.3475000,0.3475000,0.3475000,1.9678509,-0.0645444,-2.5007622,1.9678509,1.0353468,6.1670334
0.3500000,0.3500000,0.3500000,1.7805966,-0.0669609,-2.4872535,1.7805966,0.8972068,5.6649652
0.3525000,0.3525000,0.3525000,1.6045536,-0.0689545,-2.4706761,1.6045536,0.7690197,5.2058452
0.3550000,0.3550000,0.3550000,1.4395297,-0.0705029,-2.4514220,1.4395297,0.6499310,4.7851471
0.3575000,0.3575000,0.3575000,1.2851581,-0.0715860,-2.4298479,1.2851581,0.5389845,4.3986402
0.3600000,0.3600000,0.3600000,1.1408820,-0.0721859,-2.4062773,1.1408820,0.4351640,4.0423840
0.3625000,0.3625000,0.3625000,1.0059719,-0.0722870,-2.3810015,1.0059719,0.3374442,3.7127564
0.3650000,0.3650000,0.3650000,0.8795603,-0.0718770,-2.3542827,0.8795603,0.2448605,3.4065023
0.3675000,0.3675000,0.3675000,0.7606818,-0.0709482,-2.3263555,0.7606818,0.1565939,3.1207861
0.3700000,0.3700000,0.3700000,0.6483206,-0.0694989,-2.2974296,0.6483206,0.0720511,2.8532311
0.3725000,0.3725000,0.3725000,0.5414715,-0.0675361,-2.2676918,0.5414715,-0.0090849,2.6019305
0.3750000,0.3750000,0.3750000,0.4392178,-0.0650800,-2.2373082,0.4392178,-0.0868502,2.3654237
0.3775000,0.3775000,0.3775000,0.3408180,-0.0621683,-2.2064261,0.3408180,-0.1610432,2.1426370
0.3800000,0.3800000,0.3800000,0.2457797,-0.0588595,-2.1751757,0.2457797,-0.2313002,1.9327963
0.3825000,0.3825000,0.3825000,0.1538999,-0.0552323,-2.1436724,0.1538999,-0.2971842,1.7353233
0.3850000,0.3850000,0.3850000,0.0652583,-0.0513804,-2.1120173,0.0652583,-0.3582672,1.5497308
0.3875000,0.3875000,0.3875000,-0.0198330,-0.0474053,-2.0802998,-0.0198330,-0.4141924,1.3755296
0.3900000,0.3900000,0.3900000,-0.1009103,-0.0434070,-2.0485981,-0.1009103,-0.4647138,1.2121586
0.3925000,0.3925000,0.3925000,-0.1774478,-0.0394765,-2.0169804,-0.1774478,-0.5097122,1.0589426
0.3950000,0.3950000,0.3950000,-0.2489402,-0.0356894,-1.9855064,-0.2489402,-0.5491933,0.9150780
0.3975000,0.3975000,0.3975000,-0.3149644,-0.0321042,-1.9542279,-0.3149644,-0.5832744,0.7796428
0.4000000,0.4000000,0.4000000,-0.3752182,-0.0287612,-1.9231898,-0.3752182,-0.6121646,0.6516312
0.4025000,0.4025000,0.4025000,-0.4295359,-0.0256843,-1.8924306,-0.4295359,-0.6361426,0.5300080
0.4050000,0.4050000,0.4050000,-0.4778863,-0.0228837,-1.8619836,-0.4778863,-0.6555355,0.4137816
0.4075000,0.4075000,0.4075000,-0.5203598,-0.0203586,-1.8318770,-0.5203598,-0.6706995,0.3020841
0.4100000,0.4100000,0.4100000,-0.5571471,-0.0181003,-1.8021346,-0.5571471,-0.6820042,0.1942458
0.4125000,0.4125000,0.4125000,-0.5885172,-0.0160948,-1.7727764,-0.5885172,-0.6898204,0.0898486
0.4150000,0.4150000,0.4150000,-0.6147950,-0.0143243,-1.7438190,-0.6147950,-0.6945100,-0.0112551
0.4175000,0.4175000,0.4175000,-0.6363415,-0.0127696,-1.7152761,-0.6363415,-0.6964196,-0.1089592
0.4200000,0.4200000,0.4200000,-0.6535366,-0.0114108,-1.6871583,-0.6535366,-0.6958759,-0.2029540
0.4225000,0.4225000,0.4225000,-0.6667658,-0.0102282,-1.6594743,-0.6667658,-0.6931830,-0.2927950
0.4250000,0.4250000,0.4250000,-0.6764096,-0.0092028,-1.6322304,-0.6764096,-0.6886210,-0.3779785
0.4275000,0.4275000,0.4275000,-0.6828357,-0.0083172,-1.6054312,-0.6828357,-0.6824458,-0.4580101
0.4300000,0.4300000,0.4300000,-0.6863940,-0.0075548,-1.5790795,-0.6863940,-0.6748891,-0.5324586
0.4325000,0.4325000,0.4325000,-0.6874127,-0.0069007,-1.5531768,-0.6874127,-0.6661600,-0.6009922
0.4350000,0.4350000,0.4350000,-0.6861965,-0.0063416,-1.5277233,-0.6861965,-0.6564456,-0.6633968
0.4375000,0.4375000,0.4375000,-0.6830260,-0.0058654,-1.5027183,-0.6830260,-0.6459130,-0.7195793
0.4400000,0.4400000,0.4400000,-0.6781575,-0.0054611,-1.4781597,-0.6781575,-0.6347104,-0.7695610
0.4425000,0.4425000,0.4425000,-0.6718236,-0.0051194,-1.4540450,-0.6718236,-0.6229690,-0.8134631
0.4450000,0.4450000,0.4450000,-0.6642344,-0.0048317,-1.4303707,-0.6642344,-0.6108044,-0.8514894
0.4475000,0.4475000,0.4475000,-0.6555787,-0.0045907,-1.4071328,-0.6555787,-0.5983181,-0.8839083
0.4500000,0.4500000,0.4500000,-0.6460255,-0.0043897,-1.3843268,-0.6460255,-0.5855990,-0.9110346
0.4525000,0.4525000,0.4525000,-0.6357254,-0.0042232,-1.3619476,-0.6357254,-0.5727245,-0.9332141
0.4550000,0.4550000,0.4550000,-0.6248123,-0.0040860,-1.3399897,-0.6248123,-0.5597622,-0.9508101
0.4575000,0.4575000,0.4575000,-0.6134048,-0.0039740,-1.3184476,-0.6134048,-0.5467702,-0.9641919
0.4600000,0.4600000,0.4600000,-0.6016075,-0.0038832,-1.2973150,-0.6016075,-0.5337989,-0.9737265
0.4625000,0.4625000,0.4625000,-0.5895126,-0.0038104,-1.2765858,-0.5895126,-0.5208913,-0.9797717
0.4650000,0.4650000,0.4650000,-0.5772010,-0.0037528,-1.2562536,-0.5772010,-0.5080845,-0.9826712
0.4675000,0.4675000,0.4675000,-0.5647434,-0.0037079,-1.2363117,-0.5647434,-0.4954096,-0.9827512
0.4700000,0.4700000,0.4700000,-0.5522015,-0.0036735,-1.2167536,-0.5522015,-0.4828930,-0.9803183
0.4725000,0.4725000,0.4725000,-0.5396291,-0.0036478,-1.1975724,-0.5396291,-0.4705569,-0.9756584
0.4750000,0.4750000,0.4750000,-0.5270725,-0.0036293,-1.1787613,-0.5270725,-0.4584195,-0.9690360
0.4775000,0.4775000,0.4775000,-0.5145719,-0.0036166,-1.1603135,-0.5145719,-0.4464958,-0.9606947
0.4800000,0.4800000,0.4800000,-0.5021617,-0.0036085,-1.1422222,-0.5021617,-0.4347978,-0.9508573
0.4825000,0.4825000,0.4825000,-0.4898711,-0.0036041,-1.1244805,-0.4898711,-0.4233349,-0.9397269
0.4850000,0.4850000,0.4850000,-0.4777252,-0.0036024,-1.1070816,-0.4777252,-0.4121146,-0.9274879
0.4875000,0.4875000,0.4875000,-0.4657449,-0.0036028,-1.0900187,-0.4657449,-0.4011421,-0.9143070
0.4900000,0.4900000,0.4900000,-0.4539478,-0.0036047,-1.0732851,-0.4539478,-0.3904211,-0.9003345
0.4925000,0.4925000,0.4925000,-0.4423483,-0.0036076,-1.0568742,-0.4423483,-0.3799539,-0.8857054
0.4950000,0.4950000,0.4950000,-0.4309583,-0.0036109,-1.0407793,-0.4309583,-0.3697413,-0.8705407
0.4975000,0.4975000,0.4975000,-0.4197871,-0.0036144,-1.0249940,-0.4197871,-0.3597833,-0.8549486
0.5000000,0.5000000,0.5000000,-0.4088423,-0.0036178,-1.0095118,-0.4088423,-0.3500789,-0.8390254
0.5025000,0.5025000,0.5025000,-0.3981292,-0.0036208,-0.9943264,-0.3981292,-0.3406262,-0.8228567
0.5050000,0.5050000,0.5050000,-0.3876520,-0.0036232,-0.9794315,-0.3876520,-0.3314227,-0.8065184
0.5075000,0.5075000,0.5075000,-0.3774132,-0.0036249,-0.9648211,-0.3774132,-0.3224654,-0.7900777
0.5100000,0.5100000,0.5100000,-0.3674143,-0.0036258,-0.9504890,-0.3674143,-0.3137506,-0.7735934
0.5125000,0.5125000,0.5125000,-0.3576556,-0.0036257,-0.9364294,-0.3576556,-0.3052746,-0.7571177
0.5150000,0.5150000,0.5150000,-0.3481367,-0.0036246,-0.9226364,-0.3481367,-0.2970330,-0.7406959
0.5175000,0.5175000,0.5175000,-0.3388563,-0.0036224,-0.9091043,-0.3388563,-0.2890213,-0.7243676
0.5200000,0.5200000,0.5200000,-0.3298125,-0.0036191,-0.8958274,-0.3298125,-0.2812347,-0.7081672
0.5225000,0.5225000,0.5225000,-0.3210028,-0.0036147,-0.8828004,-0.3210028,-0.2736685,-0.6921245
0.5250000,0.5250000,0.5250000,-0.3124241,-0.0036091,-0.8700178,-0.3124241,-0.2663176,-0.6762649
0.5275000,0.5275000,0.5275000,-0.3040733,-0.0036024,-0.8574743,-0.3040733,-0.2591770,-0.6606103
0.5300000,0.5300000,0.5300000,-0.2959466,-0.0035947,-0.8451647,-0.2959466,-0.2522414,-0.6451790
0.5325000,0.5325000,0.5325000,-0.2880400,-0.0035858,-0.8330841,-0.2880400,-0.2455058,-0.6299866
0.5350000,0.5350000,0.5350000,-0.2803493,-0.0035759,-0.8212273,-0.2803493,-0.2389649,-0.6150458
0.5375000,0.5375000,0.5375000,-0.2728703,-0.0035649,-0.8095897,-0.2728703,-0.2326137,-0.6003671
0.5400000,0.5400000,0.5400000,-0.2655984,-0.0035530,-0.7981664,-0.2655984,-0.2264470,-0.5859589
0.5425000,0.5425000,0.5425000,-0.2585289,-0.0035401,-0.7869528,-0.2585289,-0.2204597,-0.5718276
0.5450000,0.5450000,0.5450000,-0.2516574,-0.0035263,-0.7759444,-0.2516574,-0.2146470,-0.5579783
0.5475000,0.5475000,0.5475000,-0.2449790,-0.0035116,-0.7651367,-0.2449790,-0.2090037,-0.5444143
0.5500000,0.5500000,0.5500000,-0.2384890,-0.0034961,-0.7545254,-0.2384890,-0.2035252,-0.5311377
0.5525000,0.5525000,0.5525000,-0.2321827,-0.0034798,-0.7441063,-0.2321827,-0.1982065,-0.5181497
0.5550000,0.5550000,0.5550000,-0.2260553,-0.0034627,-0.7338752,-0.2260553,-0.1930432,-0.5054503
0.5575000,0.5575000,0.5575000,-0.2201023,-0.0034450,-0.7238282,-0.2201023,-0.1880305,-0.4930387
0.5600000,0.5600000,0.5600000,-0.2143189,-0.0034266,-0.7139611,-0.2143189,-0.1831640,-0.4809134
0.5625000,0.5625000,0.5625000,-0.2087005,-0.0034075,-0.7042702,-0.2087005,-0.1784394,-0.4690722
0.5650000,0.5650000,0.5650000,-0.2032427,-0.0033879,-0.6947518,-0.2032427,-0.1738524,-0.4575124
0.5675000,0.5675000,0.5675000,-0.1979409,-0.0033678,-0.6854021,-0.1979409,-0.1693988,-0.4462307
0.5700000,0.5700000,0.5700000,-0.1927908,-0.0033471,-0.6762175,-0.1927908,-0.1650747,-0.4352236
0.5725000,0.5725000,0.5725000,-0.1877881,-0.0033260,-0.6671946,-0.1877881,-0.1608759,-0.4244870
0.5750000,0.5750000,0.5750000,-0.1829285,-0.0033044,-0.6583298,-0.1829285,-0.1567988,-0.4140168
0.5775000,0.5775000,0.5775000,-0.1782080,-0.0032825,-0.6496199,-0.1782080,-0.1528396,-0.4038083
0.5800000,0.5800000,0.5800000,-0.1736224,-0.0032601,-0.6410616,-0.1736224,-0.1489946,-0.3938570
0.5825000,0.5825000,0.5825000,-0.1691680,-0.0032375,-0.6326516,-0.1691680,-0.1452604,-0.3841579
0.5850000,0.5850000,0.5850000,-0.1648407,-0.0032146,-0.6243870,-0.1648407,-0.1416334,-0.3747061
0.5875000,0.5875000,0.5875000,-0.1606369,-0.0031914,-0.6162645,-0.1606369,-0.1381106,-0.3654964
0.5900000,0.5900000,0.5900000,-0.1565528,-0.0031679,-0.6082813,-0.1565528,-0.1346885,-0.3565238
0.5925000,0.5925000,0.5925000,-0.1525850,-0.0031443,-0.6004345,-0.1525850,-0.1313641,-0.3477831
0.5950000,0.5950000,0.5950000,-0.1487300,-0.0031204,-0.5927212,-0.1487300,-0.1281343,-0.3392691
0.5975000,0.5975000,0.5975000,-0.1449843,-0.0030964,-0.5851386,-0.1449843,-0.1249962,-0.3309765
0.6000000,0.6000000,0.6000000,-0.1413447,-0.0030723,-0.5776841,-0.1413447,-0.1219471,-0.3229002
0.6025000,0.6025000,0.6025000,-0.1378081,-0.0030480,-0.5703549,-0.1378081,-0.1189841,-0.3150350
0.6050000,0.6050000,0.6050000,-0.1343712,-0.0030237,-0.5631487,-0.1343712,-0.1161045,-0.3073757
0.6075000,0.6075000,0.6075000,-0.1310312,-0.0029992,-0.5560627,-0.1310312,-0.1133058,-0.2999174
0.6100000,0.6100000,0.6100000,-0.1277851,-0.0029747,-0.5490946,-0.1277851,-0.1105855,-0.2926549
0.6125000,0.6125000,0.6125000,-0.1246299,-0.0029502,-0.5422419,-0.1246299,-0.1079412,-0.2855833
0.6150000,0.6150000,0.6150000,-0.1215631,-0.0029257,-0.5355024,-0.1215631,-0.1053705,-0.2786978
0.6175000,0.6175000,0.6175000,-0.1185820,-0.0029011,-0.5288737,-0.1185820,-0.1028711,-0.2719934
0.6200000,0.6200000,0.6200000,-0.1156838,-0.0028766,-0.5223535,-0.1156838,-0.1004409,-0.2654656
0.6225000,0.6225000,0.6225000,-0.1128662,-0.0028520,-0.5159398,-0.1128662,-0.0980778,-0.2591096
0.6250000,0.6250000,0.6250000,-0.1101267,-0.0028275,-0.5096304,-0.1101267,-0.0957796,-0.2529210
0.6275000,0.6275000,0.6275000,-0.1074629,-0.0028031,-0.5034231,-0.1074629,-0.0935444,-0.2468952
0.6300000,0.6300000,0.6300000,-0.1048725,-0.0027787,-0.4973161,-0.1048725,-0.0913703,-0.2410279
0.6325000,0.6325000,0.6325000,-0.1023534,-0.0027544,-0.4913071,-0.1023534,-0.0892554,-0.2353149
0.6350000,0.6350000,0.6350000,-0.0999034,-0.0027302,-0.4853944,-0.0999034,-0.0871978,-0.2297519
0.6375000,0.6375000,0.6375000,-0.0975204,-0.0027060,-0.4795761,-0.0975204,-0.0851960,-0.2243349
0.6400000,0.6400000,0.6400000,-0.0952024,-0.0026820,-0.4738502,-0.0952024,-0.0832481,-0.2190598
0.6425000,0.6425000,0.6425000,-0.0929474,-0.0026581,-0.4682149,-0.0929474,-0.0813525,-0.2139230
0.6450000,0.6450000,0.6450000,-0.0907536,-0.0026342,-0.4626686,-0.0907536,-0.0795078,-0.2089204
0.6475000,0.6475000,0.6475000,-0.0886191,-0.0026105,-0.4572094,-0.0886191,-0.0777122,-0.2040485
0.6500000,0.6500000,0.6500000,-0.0865422,-0.0025870,-0.4518357,-0.0865422,-0.0759644,-0.1993036
0.6525000,0.6525000,0.6525000,-0.0845211,-0.0025636,-0.4465458,-0.0845211,-0.0742629,-0.1946823
0.6550000,0.6550000,0.6550000,-0.0825542,-0.0025403,-0.4413381,-0.0825542,-0.0726064,-0.1901810
0.6575000,0.6575000,0.6575000,-0.0806398,-0.0025171,-0.4362111,-0.0806398,-0.0709935,-0.1857966
0.6600000,0.6600000,0.6600000,-0.0787764,-0.0024941,-0.4311631,-0.0787764,-0.0694229,-0.1815257
0.6625000,0.6625000,0.6625000,-0.0769625,-0.0024713,-0.4261927,-0.0769625,-0.0678933,-0.1773652
0.6650000,0.6650000,0.6650000,-0.0751967,-0.0024486,-0.4212984,-0.0751967,-0.0664036,-0.1733121
0.6675000,0.6675000,0.6675000,-0.0734775,-0.0024261,-0.4164787,-0.0734775,-0.0649525,-0.1693633
0.6700000,0.6700000,0.6700000,-0.0718035,-0.0024038,-0.4117323,-0.0718035,-0.0635389,-0.1655160
0.6725000,0.6725000,0.6725000,-0.0701734,-0.0023816,-0.4070578,-0.0701734,-0.0621618,-0.1617673
0.6750000,0.6750000,0.6750000,-0.0685860,-0.0023596,-0.4024538,-0.0685860,-0.0608201,-0.1581145
0.6775000,0.6775000,0.6775000,-0.0670399,-0.0023378,-0.3979190,-0.0670399,-0.0595127,-0.1545550
0.6800000,0.6800000,0.6800000,-0.0655340,-0.0023161,-0.3934521,-0.0655340,-0.0582386,-0.1510861
0.6825000,0.6825000,0.6825000,-0.0640671,-0.0022946,-0.3890519,-0.0640671,-0.0569969,-0.1477053
0.6850000,0.6850000,0.6850000,-0.0626382,-0.0022734,-0.3847171,-0.0626382,-0.0557866,-0.1444103
0.6875000,0.6875000,0.6875000,-0.0612459,-0.0022522,-0.3804465,-0.0612459,-0.0546069,-0.1411985
0.6900000,0.6900000,0.6900000,-0.0598895,-0.0022313,-0.3762389,-0.0598895,-0.0534568,-0.1380678
0.6925000,0.6925000,0.6925000,-0.0585677,-0.0022106,-0.3720932,-0.0585677,-0.0523355,-0.1350159
0.6950000,0.6950000,0.6950000,-0.0572796,-0.0021900,-0.3680083,-0.0572796,-0.0512422,-0.1320406
0.6975000,0.6975000,0.6975000,-0.0560242,-0.0021697,-0.3639830,-0.0560242,-0.0501761,-0.1291398
0.7000000,0.7000000,0.7000000,-0.0548007,-0.0021495,-0.3600163,-0.0548007,-0.0491364,-0.1263114
0.7025000,0.7025000,0.7025000,-0.0536080,-0.0021295,-0.3561071,-0.0536080,-0.0481223,-0.1235534
0.7050000,0.7050000,0.7050000,-0.0524454,-0.0021097,-0.3522544,-0.0524454,-0.0471332,-0.1208640
0.7075000,0.7075000,0.7075000,-0.0513119,-0.0020901,-0.3484571,-0.0513119,-0.0461684,-0.1182412
0.7100000,0.7100000,0.7100000,-0.0502067,-0.0020706,-0.3447143,-0.0502067,-0.0452271,-0.1156832
0.7125000,0.7125000,0.7125000,-0.0491292,-0.0020514,-0.3410250,-0.0491292,-0.0443087,-0.1131883
0.7150000,0.7150000,0.7150000,-0.0480783,-0.0020323,-0.3373883,-0.0480783,-0.0434126,-0.1107547
0.7175000,0.7175000,0.7175000,-0.0470535,-0.0020135,-0.3338031,-0.0470535,-0.0425382,-0.1083807
0.7200000,0.7200000,0.7200000,-0.0460540,-0.0019948,-0.3302687,-0.0460540,-0.0416848,-0.1060648
0.7225000,0.7225000,0.7225000,-0.0450791,-0.0019763,-0.3267841,-0.0450791,-0.0408518,-0.1038053
0.7250000,0.7250000,0.7250000,-0.0441281,-0.0019580,-0.3233484,-0.0441281,-0.0400388,-0.1016008
0.7275000,0.7275000,0.7275000,-0.0432004,-0.0019399,-0.3199608,-0.0432004,-0.0392451,-0.0994497
0.7300000,0.7300000,0.7300000,-0.0422953,-0.0019219,-0.3166204,-0.0422953,-0.0384703,-0.0973506
0.7325000,0.7325000,0.7325000,-0.0414121,-0.0019042,-0.3133265,-0.0414121,-0.0377138,-0.0953021
0.7350000,0.7350000,0.7350000,-0.0405503,-0.0018866,-0.3100782,-0.0405503,-0.0369751,-0.0933029
0.7375000,0.7375000,0.7375000,-0.0397093,-0.0018692,-0.3068747,-0.0397093,-0.0362538,-0.0913515
0.7400000,0.7400000,0.7400000,-0.0388886,-0.0018520,-0.3037153,-0.0388886,-0.0355493,-0.0894469
0.7425000,0.7425000,0.7425000,-0.0380875,-0.0018349,-0.3005993,-0.0380875,-0.0348613,-0.0875876
0.7450000,0.7450000,0.7450000,-0.0373056,-0.0018181,-0.2975258,-0.0373056,-0.0341892,-0.0857725
0.7475000,0.7475000,0.7475000,-0.0365423,-0.0018014,-0.2944941,-0.0365423,-0.0335327,-0.0840005
0.7500000,0.7500000,0.7500000,-0.0357971,-0.0017849,-0.2915036,-0.0357971,-0.0328913,-0.0822703
0.7525000,0.7525000,0.7525000,-0.0350695,-0.0017685,-0.2885535,-0.0350695,-0.0322647,-0.0805809
0.7550000,0.7550000,0.7550000,-0.0343592,-0.0017524,-0.2856432,-0.0343592,-0.0316524,-0.0789312
0.7575000,0.7575000,0.7575000,-0.0336655,-0.0017364,-0.2827720,-0.0336655,-0.0310541,-0.0773202
0.7600000,0.7600000,0.7600000,-0.0329881,-0.0017205,-0.2799393,-0.0329881,-0.0304694,-0.0757468
0.7625000,0.7625000,0.7625000,-0.0323265,-0.0017049,-0.2771443,-0.0323265,-0.0298980,-0.0742100
0.7650000,0.7650000,0.7650000,-0.0316803,-0.0016894,-0.2743865,-0.0316803,-0.0293394,-0.0727090
0.7675000,0.7675000,0.7675000,-0.0310491,-0.0016740,-0.2716653,-0.0310491,-0.0287934,-0.0712427
0.7700000,0.7700000,0.7700000,-0.0304326,-0.0016589,-0.2689800,-0.0304326,-0.0282597,-0.0698103
0.7725000,0.7725000,0.7725000,-0.0298302,-0.0016439,-0.2663301,-0.0298302,-0.0277379,-0.0684109
0.7750000,0.7750000,0.7750000,-0.0292417,-0.0016290,-0.2637150,-0.0292417,-0.0272277,-0.0670436
0.7775000,0.7775000,0.7775000,-0.0286667,-0.0016144,-0.2611341,-0.0286667,-0.0267288,-0.0657076
0.7800000,0.7800000,0.7800000,-0.0281049,-0.0015998,-0.2585868,-0.0281049,-0.0262409,-0.0644021
0.7825000,0.7825000,0.7825000,-0.0275558,-0.0015855,-0.2560726,-0.0275558,-0.0257638,-0.0631264
0.7850000,0.7850000,0.7850000,-0.0270192,-0.0015712,-0.2535911,-0.0270192,-0.0252972,-0.0618796
0.7875000,0.7875000,0.7875000,-0.0264948,-0.0015572,-0.2511415,-0.0264948,-0.0248408,-0.0606610
0.7900000,0.7900000,0.7900000,-0.0259822,-0.0015433,-0.2487235,-0.0259822,-0.0243943,-0.0594699
0.7925000,0.7925000,0.7925000,-0.0254811,-0.0015295,-0.2463365,-0.0254811,-0.0239575,-0.0583057
0.7950000,0.7950000,0.7950000,-0.0249913,-0.0015159,-0.2439800,-0.0249913,-0.0235302,-0.0571675
0.7975000,0.7975000,0.7975000,-0.0245124,-0.0015024,-0.2416536,-0.0245124,-0.0231121,-0.0560548
0.8000000,0.8000000,0.8000000,-0.0240442,-0.0014891,-0.2393568,-0.0240442,-0.0227030,-0.0549670
0.8025000,0.8025000,0.8025000,-0.0235863,-0.0014759,-0.2370890,-0.0235863,-0.0223027,-0.0539033
0.8050000,0.8050000,0.8050000,-0.0231387,-0.0014629,-0.2348499,-0.0231387,-0.0219109,-0.0528633
0.8075000,0.8075000,0.8075000,-0.0227009,-0.0014500,-0.2326389,-0.0227009,-0.0215275,-0.0518462
0.8100000,0.8100000,0.8100000,-0.0222727,-0.0014373,-0.2304557,-0.0222727,-0.0211521,-0.0508516
0.8125000,0.8125000,0.8125000,-0.0218540,-0.0014246,-0.2282998,-0.0218540,-0.0207848,-0.0498788
0.8150000,0.8150000,0.8150000,-0.0214443,-0.0014122,-0.2261708,-0.0214443,-0.0204251,-0.0489274
0.8175000,0.8175000,0.8175000,-0.0210437,-0.0013998,-0.2240682,-0.0210437,-0.0200730,-0.0479968
0.8200000,0.8200000,0.8200000,-0.0206517,-0.0013876,-0.2219917,-0.0206517,-0.0197283,-0.0470865
0.8225000,0.8225000,0.8225000,-0.0202683,-0.0013755,-0.2199408,-0.0202683,-0.0193908,-0.0461960
0.8250000,0.8250000,0.8250000,-0.0198931,-0.0013636,-0.2179152,-0.0198931,-0.0190602,-0.0453247
0.8275000,0.8275000,0.8275000,-0.0195260,-0.0013518,-0.2159145,-0.0195260,-0.0187365,-0.0444724
0.8300000,0.8300000,0.8300000,-0.0191668,-0.0013401,-0.2139382,-0.0191668,-0.0184195,-0.0436383
0.8325000,0.8325000,0.8325000,-0.0188153,-0.0013285,-0.2119860,-0.0188153,-0.0181091,-0.0428223
0.8350000,0.8350000,0.8350000,-0.0184712,-0.0013171,-0.2100576,-0.0184712,-0.0178049,-0.0420237
0.8375000,0.8375000,0.8375000,-0.0181346,-0.0013057,-0.2081526,-0.0181346,-0.0175070,-0.0412421
0.8400000,0.8400000,0.8400000,-0.0178050,-0.0012945,-0.2062706,-0.0178050,-0.0172152,-0.0404773
0.8425000,0.8425000,0.8425000,-0.0174824,-0.0012835,-0.2044113,-0.0174824,-0.0169293,-0.0397287
0.8450000,0.8450000,0.8450000,-0.0171667,-0.0012725,-0.2025743,-0.0171667,-0.0166492,-0.0389959
0.8475000,0.8475000,0.8475000,-0.0168575,-0.0012617,-0.2007594,-0.0168575,-0.0163747,-0.0382787
0.8500000,0.8500000,0.8500000,-0.0165549,-0.0012509,-0.1989661,-0.0165549,-0.0161057,-0.0375766
0.8525000,0.8525000,0.8525000,-0.0162586,-0.0012403,-0.1971941,-0.0162586,-0.0158421,-0.0368892
0.8550000,0.8550000,0.8550000,-0.0159684,-0.0012298,-0.1954432,-0.0159684,-0.0155838,-0.0362162
0.8575000,0.8575000,0.8575000,-0.0156843,-0.0012194,-0.1937131,-0.0156843,-0.0153307,-0.0355573
0.8600000,0.8600000,0.8600000,-0.0154061,-0.0012092,-0.1920033,-0.0154061,-0.0150825,-0.0349122
0.8625000,0.8625000,0.8625000,-0.0151336,-0.0011990,-0.1903137,-0.0151336,-0.0148392,-0.0342804
0.8650000,0.8650000,0.8650000,-0.0148667,-0.0011889,-0.1886439,-0.0148667,-0.0146008,-0.0336618
0.8675000,0.8675000,0.8675000,-0.0146053,-0.0011790,-0.1869936,-0.0146053,-0.0143670,-0.0330559
0.8700000,0.8700000,0.8700000,-0.0143493,-0.0011692,-0.1853625,-0.0143493,-0.0141378,-0.0324625
0.8725000,0.8725000,0.8725000,-0.0140985,-0.0011594,-0.1837505,-0.0140985,-0.0139131,-0.0318813
0.8750000,0.8750000,0.8750000,-0.0138528,-0.0011498,-0.1821571,-0.0138528,-0.0136927,-0.0313121
0.8775000,0.8775000,0.8775000,-0.0136121,-0.0011402,-0.1805821,-0.0136121,-0.0134766,-0.0307544
0.8800000,0.8800000,0.8800000,-0.0133762,-0.0011308,-0.1790253,-0.0133762,-0.0132647,-0.0302082
0.8825000,0.8825000,0.8825000,-0.0131451,-0.0011215,-0.1774864,-0.0131451,-0.0130569,-0.0296730
0.8850000,0.8850000,0.8850000,-0.0129187,-0.0011122,-0.1759651,-0.0129187,-0.0128530,-0.0291487
0.8875000,0.8875000,0.8875000,-0.0126968,-0.0011031,-0.1744612,-0.0126968,-0.0126531,-0.0286350
0.8900000,0.8900000,0.8900000,-0.0124794,-0.0010940,-0.1729744,-0.0124794,-0.0124569,-0.0281317
0.8925000,0.8925000,0.8925000,-0.0122663,-0.0010851,-0.1715046,-0.0122663,-0.0122645,-0.0276385
0.8950000,0.8950000,0.8950000,-0.0120574,-0.0010762,-0.1700513,-0.0120574,-0.0120758,-0.0271552
0.8975000,0.8975000,0.8975000,-0.0118527,-0.0010675,-0.1686145,-0.0118527,-0.0118906,-0.0266815
0.9000000,0.9000000,0.9000000,-0.0116520,-0.0010588,-0.1671939,-0.0116520,-0.0117089,-0.0262174
0.9025000,0.9025000,0.9025000,-0.0114553,-0.0010502,-0.1657893,-0.0114553,-0.0115306,-0.0257624
0.9050000,0.9050000,0.9050000,-0.0112625,-0.0010417,-0.1644003,-0.0112625,-0.0113556,-0.0253165
0.9075000,0.9075000,0.9075000,-0.0110734,-0.0010333,-0.1630269,-0.0110734,-0.0111839,-0.0248794
0.9100000,0.9100000,0.9100000,-0.0108880,-0.0010250,-0.1616688,-0.0108880,-0.0110154,-0.0244509
0.9125000,0.9125000,0.9125000,-0.0107063,-0.0010168,-0.1603258,-0.0107063,-0.0108500,-0.0240309
0.9150000,0.9150000,0.9150000,-0.0105281,-0.0010086,-0.1589976,-0.0105281,-0.0106877,-0.0236191
0.9175000,0.9175000,0.9175000,-0.0103533,-0.0010006,-0.1576841,-0.0103533,-0.0105283,-0.0232154
0.9200000,0.9200000,0.9200000,-0.0101819,-0.0009926,-0.1563851,-0.0101819,-0.0103719,-0.0228196
0.9225000,0.9225000,0.9225000,-0.0100139,-0.0009847,-0.1551003,-0.0100139,-0.0102183,-0.0224314
0.9250000,0.9250000,0.9250000,-0.0098490,-0.0009769,-0.1538297,-0.0098490,-0.0100676,-0.0220509
0.9275000,0.9275000,0.9275000,-0.0096874,-0.0009691,-0.1525729,-0.0096874,-0.0099195,-0.0216777
0.9300000,0.9300000,0.9300000,-0.0095288,-0.0009615,-0.1513297,-0.0095288,-0.0097742,-0.0213117
0.9325000,0.9325000,0.9325000,-0.0093732,-0.0009539,-0.1501001,-0.0093732,-0.0096315,-0.0209528
0.9350000,0.9350000,0.9350000,-0.0092206,-0.0009464,-0.1488838,-0.0092206,-0.0094914,-0.0206007
0.9375000,0.9375000,0.9375000,-0.0090709,-0.0009390,-0.1476807,-0.0090709,-0.0093537,-0.0202555
0.9400000,0.9400000,0.9400000,-0.0089240,-0.0009316,-0.1464905,-0.0089240,-0.0092186,-0.0199168
0.9425000,0.9425000,0.9425000,-0.0087800,-0.0009244,-0.1453131,-0.0087800,-0.0090858,-0.0195846
0.9450000,0.9450000,0.9450000,-0.0086386,-0.0009172,-0.1441483,-0.0086386,-0.0089555,-0.0192587
0.9475000,0.9475000,0.9475000,-0.0084998,-0.0009100,-0.1429960,-0.0084998,-0.0088274,-0.0189390
0.9500000,0.9500000,0.9500000,-0.0083637,-0.0009030,-0.1418559,-0.0083637,-0.0087016,-0.0186254
0.9525000,0.9525000,0.9525000,-0.0082301,-0.0008960,-0.1407280,-0.0082301,-0.0085780,-0.0183177
0.9550000,0.9550000,0.9550000,-0.0080990,-0.0008891,-0.1396120,-0.0080990,-0.0084566,-0.0180158
0.9575000,0.9575000,0.9575000,-0.0079703,-0.0008822,-0.1385079,-0.0079703,-0.0083373,-0.0177196
0.9600000,0.9600000,0.9600000,-0.0078440,-0.0008754,-0.1374153,-0.0078440,-0.0082201,-0.0174289
0.9625000,0.9625000,0.9625000,-0.0077201,-0.0008687,-0.1363343,-0.0077201,-0.0081049,-0.0171436
0.9650000,0.9650000,0.9650000,-0.0075984,-0.0008621,-0.1352646,-0.0075984,-0.0079917,-0.0168637
0.9675000,0.9675000,0.9675000,-0.0074790,-0.0008555,-0.1342061,-0.0074790,-0.0078805,-0.0165890
0.9700000,0.9700000,0.9700000,-0.0073617,-0.0008490,-0.1331586,-0.0073617,-0.0077712,-0.0163194
0.9725000,0.9725000,0.9725000,-0.0072466,-0.0008426,-0.1321220,-0.0072466,-0.0076638,-0.0160548
0.9750000,0.9750000,0.9750000,-0.0071336,-0.0008362,-0.1310962,-0.0071336,-0.0075582,-0.0157950
0.9775000,0.9775000,0.9775000,-0.0070227,-0.0008298,-0.1300810,-0.0070227,-0.0074545,-0.0155401
0.9800000,0.9800000,0.9800000,-0.0069137,-0.0008236,-0.1290763,-0.0069137,-0.0073525,-0.0152898
0.9825000,0.9825000,0.9825000,-0.0068068,-0.0008174,-0.1280819,-0.0068068,-0.0072522,-0.0150441
0.9850000,0.9850000,0.9850000,-0.0067017,-0.0008113,-0.1270978,-0.0067017,-0.0071536,-0.0148029
0.9875000,0.9875000,0.9875000,-0.0065986,-0.0008052,-0.1261237,-0.0065986,-0.0070567,-0.0145662
0.9900000,0.9900000,0.9900000,-0.0064973,-0.0007992,-0.1251596,-0.0064973,-0.0069615,-0.0143337
0.9925000,0.9925000,0.9925000,-0.0063978,-0.0007932,-0.1242053,-0.0063978,-0.0068678,-0.0141054
0.9950000,0.9950000,0.9950000,-0.0063001,-0.0007873,-0.1232607,-0.0063001,-0.0067757,-0.0138813
0.9975000,0.9975000,0.9975000,-0.0062041,-0.0007815,-0.1223257,-0.0062041,-0.0066851,-0.0136612
1.0000000,1.0000000,1.0000000,-0.0061098,-0.0007757,-0.1214001,-0.0061098,-0.0065961,-0.0134451
1.0025000,1.0025000,1.0025000,-0.0060172,-0.0007699,-0.1204839,-0.0060172,-0.0065085,-0.0132329
1.0050000,1.0050000,1.0050000,-0.0059263,-0.0007643,-0.1195769,-0.0059263,-0.0064224,-0.0130245
1.0075000,1.0075000,1.0075000,-0.0058369,-0.0007586,-0.1186790,-0.0058369,-0.0063377,-0.0128198
1.0100000,1.0100000,1.0100000,-0.0057491,-0.0007531,-0.1177901,-0.0057491,-0.0062543,-0.0126188
1.0125000,1.0125000,1.0125000,-0.0056629,-0.0007476,-0.1169101,-0.0056629,-0.0061724,-0.0124214
1.0150000,1.0150000,1.0150000,-0.0055781,-0.0007421,-0.1160388,-0.0055781,-0.0060918,-0.0122274
1.0175000,1.0175000,1.0175000,-0.0054949,-0.0007367,-0.1151762,-0.0054949,-0.0060125,-0.0120369
1.0200000,1.0200000,1.0200000,-0.0054131,-0.0007313,-0.1143221,-0.0054131,-0.0059345,-0.0118498
1.0225000,1.0225000,1.0225000,-0.0053327,-0.0007260,-0.1134765,-0.0053327,-0.0058577,-0.0116660
1.0250000,1.0250000,1.0250000,-0.0052537,-0.0007208,-0.1126392,-0.0052537,-0.0057822,-0.0114854
1.0275000,1.0275000,1.0275000,-0.0051760,-0.0007156,-0.1118102,-0.0051760,-0.0057079,-0.0113079
1.0300000,1.0300000,1.0300000,-0.0050998,-0.0007104,-0.1109893,-0.0050998,-0.0056348,-0.0111336
1.0325000,1.0325000,1.0325000,-0.0050248,-0.0007053,-0.1101764,-0.0050248,-0.0055629,-0.0109624
1.0350000,1.0350000,1.0350000,-0.0049511,-0.0007003,-0.1093715,-0.0049511,-0.0054922,-0.0107941
1.0375000,1.0375000,1.0375000,-0.0048786,-0.0006952,-0.1085744,-0.0048786,-0.0054225,-0.0106287
1.0400000,1.0400000,1.0400000,-0.0048074,-0.0006903,-0.1077850,-0.0048074,-0.0053540,-0.0104662
1.0425000,1.0425000,1.0425000,-0.0047374,-0.0006854,-0.1070033,-0.0047374,-0.0052865,-0.0103066
1.0450000,1.0450000,1.0450000,-0.0046686,-0.0006805,-0.1062292,-0.0046686,-0.0052201,-0.0101497
1.0475000,1.0475000,1.0475000,-0.0046010,-0.0006757,-0.1054625,-0.0046010,-0.0051548,-0.0099955
1.0500000,1.0500000,1.0500000,-0.0045345,-0.0006709,-0.1047032,-0.0045345,-0.0050905,-0.0098439
1.0525000,1.0525000,1.0525000,-0.0044691,-0.0006661,-0.1039512,-0.0044691,-0.0050271,-0.0096949
1.0550000,1.0550000,1.0550000,-0.0044048,-0.0006614,-0.1032064,-0.0044048,-0.0049648,-0.0095485
1.0575000,1.0575000,1.0575000,-0.0043416,-0.0006568,-0.1024687,-0.0043416,-0.0049035,-0.0094046
1.0600000,1.0600000,1.0600000,-0.0042795,-0.0006522,-0.1017380,-0.0042795,-0.0048431,-0.0092632
1.0625000,1.0625000,1.0625000,-0.0042184,-0.0006476,-0.1010143,-0.0042184,-0.0047836,-0.0091242
1.0650000,1.0650000,1.0650000,-0.0041583,-0.0006431,-0.1002975,-0.0041583,-0.0047250,-0.0089875
1.0675000,1.0675000,1.0675000,-0.0040992,-0.0006386,-0.0995874,-0.0040992,-0.0046674,-0.0088531
1.0700000,1.0700000,1.0700000,-0.0040411,-0.0006342,-0.0988840,-0.0040411,-0.0046106,-0.0087210
1.0725000,1.0725000,1.0725000,-0.0039840,-0.0006298,-0.0981873,-0.0039840,-0.0045547,-0.0085911
1.0750000,1.0750000,1.0750000,-0.0039278,-0.0006254,-0.0974971,-0.0039278,-0.0044997,-0.0084634
1.0775000,1.0775000,1.0775000,-0.0038725,-0.0006211,-0.0968133,-0.0038725,-0.0044455,-0.0083379
1.0800000,1.0800000,1.0800000,-0.0038181,-0.0006168,-0.0961360,-0.0038181,-0.0043921,-0.0082144
1.0825000,1.0825000,1.0825000,-0.0037646,-0.0006126,-0.0954650,-0.0037646,-0.0043395,-0.0080931
1.0850000,1.0850000,1.0850000,-0.0037120,-0.0006084,-0.0948002,-0.0037120,-0.0042877,-0.0079737
1.0875000,1.0875000,1.0875000,-0.0036603,-0.0006042,-0.0941416,-0.0036603,-0.0042367,-0.0078563
1.0900000,1.0900000,1.0900000,-0.0036093,-0.0006001,-0.0934891,-0.0036093,-0.0041865,-0.0077409
1.0925000,1.0925000,1.0925000,-0.0035593,-0.0005960,-0.0928426,-0.0035593,-0.0041370,-0.0076274
1.0950000,1.0950000,1.0950000,-0.0035100,-0.0005919,-0.0922021,-0.0035100,-0.0040882,-0.0075157
1.0975000,1.0975000,1.0975000,-0.0034615,-0.0005879,-0.0915675,-0.0034615,-0.0040402,-0.0074060
1.1000000,1.1000000,1.1000000,-0.0034138,-0.0005840,-0.0909387,-0.0034138,-0.0039929,-0.0072980
1.1025000,1.1025000,1.1025000,-0.0033669,-0.0005800,-0.0903156,-0.0033669,-0.0039463,-0.0071917
1.1050000,1.1050000,1.1050000,-0.0033207,-0.0005761,-0.0896983,-0.0033207,-0.0039004,-0.0070873
1.1075000,1.1075000,1.1075000,-0.0032752,-0.0005722,-0.0890865,-0.0032752,-0.0038551,-0.0069845
1.1100000,1.1100000,1.1100000,-0.0032305,-0.0005684,-0.0884804,-0.0032305,-0.0038105,-0.0068834
1.1125000,1.1125000,1.1125000,-0.0031865,-0.0005646,-0.0878797,-0.0031865,-0.0037666,-0.0067840
1.1150000,1.1150000,1.1150000,-0.0031432,-0.0005608,-0.0872845,-0.0031432,-0.0037233,-0.0066861
1.1175000,1.1175000,1.1175000,-0.0031006,-0.0005571,-0.0866946,-0.0031006,-0.0036807,-0.0065899
1.1200000,1.1200000,1.1200000,-0.0030587,-0.0005533,-0.0861101,-0.0030587,-0.0036386,-0.0064952
1.1225000,1.1225000,1.1225000,-0.0030174,-0.0005497,-0.0855308,-0.0030174,-0.0035972,-0.0064020
1.1250000,1.1250000,1.1250000,-0.0029767,-0.0005460,-0.0849567,-0.0029767,-0.0035563,-0.0063104
1.1275000,1.1275000,1.1275000,-0.0029367,-0.0005424,-0.0843877,-0.0029367,-0.0035161,-0.0062202
1.1300000,1.1300000,1.1300000,-0.0028974,-0.0005388,-0.0838238,-0.0028974,-0.0034764,-0.0061315
1.1325000,1.1325000,1.1325000,-0.0028586,-0.0005353,-0.0832650,-0.0028586,-0.0034373,-0.0060441
1.1350000,1.1350000,1.1350000,-0.0028205,-0.0005318,-0.0827111,-0.0028205,-0.0033988,-0.0059582
1.1375000,1.1375000,1.1375000,-0.0027829,-0.0005283,-0.0821621,-0.0027829,-0.0033608,-0.0058737
1.1400000,1.1400000,1.1400000,-0.0027459,-0.0005248,-0.0816180,-0.0027459,-0.0033233,-0.0057905
1.1425000,1.1425000,1.1425000,-0.0027095,-0.0005214,-0.0810787,-0.0027095,-0.0032864,-0.0057086
1.1450000,1.1450000,1.1450000,-0.0026737,-0.0005180,-0.0805441,-0.0026737,-0.0032500,-0.0056280
1.1475000,1.1475000,1.1475000,-0.0026384,-0.0005146,-0.0800142,-0.0026384,-0.0032141,-0.0055487
1.1500000,1.1500000,1.1500000,-0.0026037,-0.0005113,-0.0794890,-0.0026037,-0.0031787,-0.0054706
1.1525000,1.1525000,1.1525000,-0.0025695,-0.0005080,-0.0789684,-0.0025695,-0.0031438,-0.0053938
1.1550000,1.1550000,1.1550000,-0.0025358,-0.0005047,-0.0784523,-0.0025358,-0.0031094,-0.0053181
1.1575000,1.1575000,1.1575000,-0.0025026,-0.0005015,-0.0779407,-0.0025026,-0.0030755,-0.0052437
1.1600000,1.1600000,1.1600000,-0.0024700,-0.0004982,-0.0774336,-0.0024700,-0.0030420,-0.0051704
1.1625000,1.1625000,1.1625000,-0.0024378,-0.0004950,-0.0769309,-0.0024378,-0.0030090,-0.0050983
1.1650000,1.1650000,1.1650000,-0.0024061,-0.0004919,-0.0764325,-0.0024061,-0.0029765,-0.0050273
1.1675000,1.1675000,1.1675000,-0.0023749,-0.0004887,-0.0759384,-0.0023749,-0.0029444,-0.0049574
1.1700000,1.1700000,1.1700000,-0.0023442,-0.0004856,-0.0754486,-0.0023442,-0.0029128,-0.0048886
1.1725000,1.1725000,1.1725000,-0.0023139,-0.0004825,-0.0749630,-0.0023139,-0.0028816,-0.0048208
1.1750000,1.1750000,1.1750000,-0.0022841,-0.0004794,-0.0744815,-0.0022841,-0.0028508,-0.0047541
1.1775000,1.1775000,1.1775000,-0.0022548,-0.0004764,-0.0740042,-0.0022548,-0.0028204,-0.0046885
1.1800000,1.1800000,1.1800000,-0.0022258,-0.0004734,-0.0735310,-0.0022258,-0.0027905,-0.0046238
1.1825000,1.1825000,1.1825000,-0.0021974,-0.0004704,-0.0730617,-0.0021974,-0.0027609,-0.0045601
1.1850000,1.1850000,1.1850000,-0.0021693,-0.0004674,-0.0725965,-0.0021693,-0.0027318,-0.0044974
1.1875000,1.1875000,1.1875000,-0.0021417,-0.0004645,-0.0721353,-0.0021417,-0.0027030,-0.0044357
1.1900000,1.1900000,1.1900000,-0.0021144,-0.0004616,-0.0716779,-0.0021144,-0.0026747,-0.0043749
1.1925000,1.1925000,1.1925000,-0.0020876,-0.0004587,-0.0712244,-0.0020876,-0.0026467,-0.0043151
1.1950000,1.1950000,1.1950000,-0.0020612,-0.0004558,-0.0707747,-0.0020612,-0.0026191,-0.0042561
1.1975000,1.1975000,1.1975000,-0.0020351,-0.0004530,-0.0703288,-0.0020351,-0.0025918,-0.0041981
1.2000000,1.2000000,1.2000000,-0.0020095,-0.0004502,-0.0698867,-0.0020095,-0.0025649,-0.0041409
1.2025000,1.2025000,1.2025000,-0.0019842,-0.0004474,-0.0694483,-0.0019842,-0.0025384,-0.0040846
1.2050000,1.2050000,1.2050000,-0.0019593,-0.0004446,-0.0690135,-0.0019593,-0.0025122,-0.0040292
1.2075000,1.2075000,1.2075000,-0.0019347,-0.0004418,-0.0685823,-0.0019347,-0.0024864,-0.0039745
1.2100000,1.2100000,1.2100000,-0.0019105,-0.0004391,-0.0681548,-0.0019105,-0.0024609,-0.0039208
1.2125000,1.2125000,1.2125000,-0.0018867,-0.0004364,-0.0677308,-0.0018867,-0.0024358,-0.0038678
1.2150000,1.2150000,1.2150000,-0.0018632,-0.0004337,-0.0673103,-0.0018632,-0.0024110,-0.0038156
1.2175000,1.2175000,1.2175000,-0.0018401,-0.0004311,-0.0668933,-0.0018401,-0.0023865,-0.0037642
1.2200000,1.2200000,1.2200000,-0.0018173,-0.0004284,-0.0664797,-0.0018173,-0.0023623,-0.0037135
1.2225000,1.2225000,1.2225000,-0.0017948,-0.0004258,-0.0660696,-0.0017948,-0.0023384,-0.0036636
1.2250000,1.2250000,1.2250000,-0.0017726,-0.0004232,-0.0656628,-0.0017726,-0.0023149,-0.0036145
1.2275000,1.2275000,1.2275000,-0.0017508,-0.0004206,-0.0652594,-0.0017508,-0.0022916,-0.0035661
1.2300000,1.2300000,1.2300000,-0.0017293,-0.0004181,-0.0648592,-0.0017293,-0.0022687,-0.0035184
1.2325000,1.2325000,1.2325000,-0.0017081,-0.0004155,-0.0644624,-0.0017081,-0.0022460,-0.0034714
1.2350000,1.2350000,1.2350000,-0.0016871,-0.0004130,-0.0640687,-0.0016871,-0.0022237,-0.0034251
1.2375000,1.2375000,1.2375000,-0.0016665,-0.0004105,-0.0636783,-0.0016665,-0.0022016,-0.0033795
1.2400000,1.2400000,1.2400000,-0.0016462,-0.0004080,-0.0632910,-0.0016462,-0.0021798,-0.0033346
1.2425000,1.2425000,1.2425000,-0.0016262,-0.0004056,-0.0629069,-0.0016262,-0.0021583,-0.0032903
1.2450000,1.2450000,1.2450000,-0.0016064,-0.0004031,-0.0625259,-0.0016064,-0.0021371,-0.0032467
1.2475000,1.2475000,1.2475000,-0.0015870,-0.0004007,-0.0621480,-0.0015870,-0.0021161,-0.0032037
1.2500000,1.2500000,1.2500000,-0.0015678,-0.0003983,-0.0617731,-0.0015678,-0.0020954,-0.0031613
1.2525000,1.2525000,1.2525000,-0.0015489,-0.0003960,-0.0614012,-0.0015489,-0.0020749,-0.0031196
1.2550000,1.2550000,1.2550000,-0.0015302,-0.0003936,-0.0610324,-0.0015302,-0.0020548,-0.0030784
1.2575000,1.2575000,1.2575000,-0.0015118,-0.0003913,-0.0606664,-0.0015118,-0.0020348,-0.0030379
1.2600000,1.2600000,1.2600000,-0.0014937,-0.0003889,-0.0603034,-0.0014937,-0.0020151,-0.0029979
1.2625000,1.2625000,1.2625000,-0.0014758,-0.0003866,-0.0599433,-0.0014758,-0.0019957,-0.0029586
1.2650000,1.2650000,1.2650000,-0.0014582,-0.0003843,-0.0595860,-0.0014582,-0.0019765,-0.0029198
1.2675000,1.2675000,1.2675000,-0.0014408,-0.0003821,-0.0592316,-0.0014408,-0.0019575,-0.0028815
1.2700000,1.2700000,1.2700000,-0.0014236,-0.0003798,-0.0588800,-0.0014236,-0.0019388,-0.0028438
1.2725000,1.2725000,1.2725000,-0.0014067,-0.0003776,-0.0585312,-0.0014067,-0.0019203,-0.0028067
1.2750000,1.2750000,1.2750000,-0.0013901,-0.0003754,-0.0581852,-0.0013901,-0.0019021,-0.0027701
1.2775000,1.2775000,1.2775000,-0.0013736,-0.0003732,-0.0578418,-0.0013736,-0.0018840,-0.0027340
1.2800000,1.2800000,1.2800000,-0.0013574,-0.0003710,-0.0575012,-0.0013574,-0.0018662,-0.0026984
1.2825000,1.2825000,1.2825000,-0.0013414,-0.0003688,-0.0571632,-0.0013414,-0.0018486,-0.0026633
1.2850000,1.2850000,1.2850000,-0.0013256,-0.0003667,-0.0568279,-0.0013256,-0.0018312,-0.0026288
1.2875000,1.2875000,1.2875000,-0.0013101,-0.0003646,-0.0564952,-0.0013101,-0.0018141,-0.0025947
1.2900000,1.2900000,1.2900000,-0.0012947,-0.0003624,-0.0561651,-0.0012947,-0.0017971,-0.0025611
1.2925000,1.2925000,1.2925000,-0.0012796,-0.0003603,-0.0558376,-0.0012796,-0.0017803,-0.0025280
1.2950000,1.2950000,1.2950000,-0.0012647,-0.0003583,-0.0555126,-0.0012647,-0.0017638,-0.0024953
1.2975000,1.2975000,1.2975000,-0.0012500,-0.0003562,-0.0551902,-0.0012500,-0.0017474,-0.0024632
1.3000000,1.3000000,1.3000000,-0.0012354,-0.0003542,-0.0548702,-0.0012354,-0.0017313,-0.0024314
1.3025000,1.3025000,1.3025000,-0.0012211,-0.0003521,-0.0545527,-0.0012211,-0.0017153,-0.0024001
1.3050000,1.3050000,1.3050000,-0.0012070,-0.0003501,-0.0542377,-0.0012070,-0.0016995,-0.0023693
1.3075000,1.3075000,1.3075000,-0.0011930,-0.0003481,-0.0539251,-0.0011930,-0.0016839,-0.0023389
1.3100000,1.3100000,1.3100000,-0.0011793,-0.0003461,-0.0536149,-0.0011793,-0.0016685,-0.0023089
1.3125000,1.3125000,1.3125000,-0.0011657,-0.0003441,-0.0533070,-0.0011657,-0.0016533,-0.0022793
1.3150000,1.3150000,1.3150000,-0.0011523,-0.0003422,-0.0530015,-0.0011523,-0.0016383,-0.0022502
1.3175000,1.3175000,1.3175000,-0.0011391,-0.0003402,-0.0526984,-0.0011391,-0.0016234,-0.0022215
1.3200000,1.3200000,1.3200000,-0.0011261,-0.0003383,-0.0523976,-0.0011261,-0.0016088,-0.0021931
1.3225000,1.3225000,1.3225000,-0.0011132,-0.0003364,-0.0520990,-0.0011132,-0.0015942,-0.0021652
1.3250000,1.3250000,1.3250000,-0.0011005,-0.0003345,-0.0518027,-0.0011005,-0.0015799,-0.0021376
1.3275000,1.3275000,1.3275000,-0.0010880,-0.0003326,-0.0515087,-0.0010880,-0.0015657,-0.0021104
1.3300000,1.3300000,1.3300000,-0.0010757,-0.0003307,-0.0512169,-0.0010757,-0.0015517,-0.0020836
1.3325000,1.3325000,1.3325000,-0.0010635,-0.0003289,-0.0509273,-0.0010635,-0.0015379,-0.0020572
1.3350000,1.3350000,1.3350000,-0.0010514,-0.0003270,-0.0506399,-0.0010514,-0.0015242,-0.0020311
1.3375000,1.3375000,1.3375000,-0.0010396,-0.0003252,-0.0503546,-0.0010396,-0.0015107,-0.0020054
1.3400000,1.3400000,1.3400000,-0.0010279,-0.0003234,-0.0500715,-0.0010279,-0.0014973,-0.0019800
1.3425000,1.3425000,1.3425000,-0.0010163,-0.0003216,-0.0497905,-0.0010163,-0.0014841,-0.0019550
1.3450000,1.3450000,1.3450000,-0.0010049,-0.0003198,-0.0495116,-0.0010049,-0.0014710,-0.0019304
1.3475000,1.3475000,1.3475000,-0.0009936,-0.0003180,-0.0492348,-0.0009936,-0.0014581,-0.0019060
1.3500000,1.3500000,1.3500000,-0.0009825,-0.0003163,-0.0489600,-0.0009825,-0.0014453,-0.0018820
1.3525000,1.3525000,1.3525000,-0.0009716,-0.0003145,-0.0486873,-0.0009716,-0.0014327,-0.0018584
1.3550000,1.3550000,1.3550000,-0.0009607,-0.0003128,-0.0484167,-0.0009607,-0.0014203,-0.0018350
1.3575000,1.3575000,1.3575000,-0.0009501,-0.0003110,-0.0481480,-0.0009501,-0.0014079,-0.0018120
1.3600000,1.3600000,1.3600000,-0.0009395,-0.0003093,-0.0478813,-0.0009395,-0.0013957,-0.0017893
1.3625000,1.3625000,1.3625000,-0.0009291,-0.0003076,-0.0476166,-0.0009291,-0.0013837,-0.0017669
1.3650000,1.3650000,1.3650000,-0.0009188,-0.0003059,-0.0473538,-0.0009188,-0.0013718,-0.0017448
1.3675000,1.3675000,1.3675000,-0.0009087,-0.0003043,-0.0470930,-0.0009087,-0.0013600,-0.0017230
1.3700000,1.3700000,1.3700000,-0.0008987,-0.0003026,-0.0468341,-0.0008987,-0.0013483,-0.0017014
1.3725000,1.3725000,1.3725000,-0.0008888,-0.0003010,-0.0465770,-0.0008888,-0.0013368,-0.0016802
1.3750000,1.3750000,1.3750000,-0.0008790,-0.0002993,-0.0463219,-0.0008790,-0.0013254,-0.0016593
1.3775000,1.3775000,1.3775000,-0.0008694,-0.0002977,-0.0460686,-0.0008694,-0.0013141,-0.0016386
1.3800000,1.3800000,1.3800000,-0.0008599,-0.0002961,-0.0458172,-0.0008599,-0.0013030,-0.0016182
1.3825000,1.3825000,1.3825000,-0.0008505,-0.0002945,-0.0455676,-0.0008505,-0.0012920,-0.0015981
1.3850000,1.3850000,1.3850000,-0.0008413,-0.0002929,-0.0453198,-0.0008413,-0.0012811,-0.0015783
1.3875000,1.3875000,1.3875000,-0.0008321,-0.0002913,-0.0450738,-0.0008321,-0.0012703,-0.0015587
1.3900000,1.3900000,1.3900000,-0.0008231,-0.0002897,-0.0448296,-0.0008231,-0.0012597,-0.0015394
1.3925000,1.3925000,1.3925000,-0.0008142,-0.0002882,-0.0445871,-0.0008142,-0.0012491,-0.0015203
1.3950000,1.3950000,1.3950000,-0.0008053,-0.0002866,-0.0443464,-0.0008053,-0.0012387,-0.0015015
1.3975000,1.3975000,1.3975000,-0.0007967,-0.0002851,-0.0441074,-0.0007967,-0.0012284,-0.0014830
1.4000000,1.4000000,1.4000000,-0.0007881,-0.0002836,-0.0438702,-0.0007881,-0.0012182,-0.0014647
1.4025000,1.4025000,1.4025000,-0.0007796,-0.0002820,-0.0436346,-0.0007796,-0.0012081,-0.0014466
1.4050000,1.4050000,1.4050000,-0.0007712,-0.0002805,-0.0434007,-0.0007712,-0.0011982,-0.0014288
1.4075000,1.4075000,1.4075000,-0.0007630,-0.0002791,-0.0431685,-0.0007630,-0.0011883,-0.0014112
1.4100000,1.4100000,1.4100000,-0.0007548,-0.0002776,-0.0429380,-0.0007548,-0.0011785,-0.0013938
1.4125000,1.4125000,1.4125000,-0.0007467,-0.0002761,-0.0427091,-0.0007467,-0.0011689,-0.0013767
1.4150000,1.4150000,1.4150000,-0.0007388,-0.0002746,-0.0424818,-0.0007388,-0.0011593,-0.0013598
1.4175000,1.4175000,1.4175000,-0.0007309,-0.0002732,-0.0422562,-0.0007309,-0.0011499,-0.0013431
1.4200000,1.4200000,1.4200000,-0.0007231,-0.0002717,-0.0420321,-0.0007231,-0.0011405,-0.0013266
1.4225000,1.4225000,1.4225000,-0.0007155,-0.0002703,-0.0418096,-0.0007155,-0.0011313,-0.0013104
1.4250000,1.4250000,1.4250000,-0.0007079,-0.0002689,-0.0415887,-0.0007079,-0.0011221,-0.0012943
1.4275000,1.4275000,1.4275000,-0.0007004,-0.0002675,-0.0413693,-0.0007004,-0.0011131,-0.0012785
1.4300000,1.4300000,1.4300000,-0.0006930,-0.0002661,-0.0411515,-0.0006930,-0.0011041,-0.0012628
1.4325000,1.4325000,1.4325000,-0.0006857,-0.0002647,-0.0409352,-0.0006857,-0.0010953,-0.0012474
1.4350000,1.4350000,1.4350000,-0.0006785,-0.0002633,-0.0407205,-0.0006785,-0.0010865,-0.0012322
1.4375000,1.4375000,1.4375000,-0.0006714,-0.0002619,-0.0405072,-0.0006714,-0.0010778,-0.0012172
1.4400000,1.4400000,1.4400000,-0.0006644,-0.0002606,-0.0402954,-0.0006644,-0.0010693,-0.0012023
1.4425000,1.4425000,1.4425000,-0.0006574,-0.0002592,-0.0400851,-0.0006574,-0.0010608,-0.0011877
1.4450000,1.4450000,1.4450000,-0.0006506,-0.0002579,-0.0398763,-0.0006506,-0.0010524,-0.0011732
1.4475000,1.4475000,1.4475000,-0.0006438,-0.0002565,-0.0396689,-0.0006438,-0.0010440,-0.0011590
1.4500000,1.4500000,1.4500000,-0.0006371,-0.0002552,-0.0394629,-0.0006371,-0.0010358,-0.0011449
1.4525000,1.4525000,1.4525000,-0.0006305,-0.0002539,-0.0392584,-0.0006305,-0.0010277,-0.0011310
1.4550000,1.4550000,1.4550000,-0.0006240,-0.0002526,-0.0390553,-0.0006240,-0.0010196,-0.0011173
1.4575000,1.4575000,1.4575000,-0.0006175,-0.0002513,-0.0388535,-0.0006175,-0.0010116,-0.0011037
1.4600000,1.4600000,1.4600000,-0.0006111,-0.0002500,-0.0386532,-0.0006111,-0.0010038,-0.0010903
1.4625000,1.4625000,1.4625000,-0.0006048,-0.0002487,-0.0384543,-0.0006048,-0.0009959,-0.0010771
1.4650000,1.4650000,1.4650000,-0.0005986,-0.0002475,-0.0382567,-0.0005986,-0.0009882,-0.0010641
1.4675000,1.4675000,1.4675000,-0.0005925,-0.0002462,-0.0380604,-0.0005925,-0.0009806,-0.0010512
1.4700000,1.4700000,1.4700000,-0.0005864,-0.0002449,-0.0378656,-0.0005864,-0.0009730,-0.0010385
1.4725000,1.4725000,1.4725000,-0.0005804,-0.0002437,-0.0376720,-0.0005804,-0.0009655,-0.0010260
1.4750000,1.4750000,1.4750000,-0.0005744,-0.0002425,-0.0374798,-0.0005744,-0.0009581,-0.0010136
1.4775000,1.4775000,1.4775000,-0.0005686,-0.0002412,-0.0372888,-0.0005686,-0.0009507,-0.0010014
1.4800000,1.4800000,1.4800000,-0.0005628,-0.0002400,-0.0370992,-0.0005628,-0.0009435,-0.0009893
1.4825000,1.4825000,1.4825000,-0.0005571,-0.0002388,-0.0369108,-0.0005571,-0.0009363,-0.0009774
1.4850000,1.4850000,1.4850000,-0.0005514,-0.0002376,-0.0367237,-0.0005514,-0.0009291,-0.0009656
1.4875000,1.4875000,1.4875000,-0.0005458,-0.0002364,-0.0365379,-0.0005458,-0.0009221,-0.0009540
1.4900000,1.4900000,1.4900000,-0.0005403,-0.0002352,-0.0363534,-0.0005403,-0.0009151,-0.0009425
1.4925000,1.4925000,1.4925000,-0.0005348,-0.0002340,-0.0361700,-0.0005348,-0.0009082,-0.0009312
1.4950000,1.4950000,1.4950000,-0.0005295,-0.0002328,-0.0359880,-0.0005295,-0.0009014,-0.0009200
1.4975000,1.4975000,1.4975000,-0.0005241,-0.0002317,-0.0358071,-0.0005241,-0.0008946,-0.0009089
1.5000000,1.5000000,1.5000000,-0.0005189,-0.0002305,-0.0356274,-0.0005189,-0.0008879,-0.0008980
1.5025000,1.5025000,1.5025000,-0.0005137,-0.0002294,-0.0354490,-0.0005137,-0.0008813,-0.0008872
1.5050000,1.5050000,1.5050000,-0.0005085,-0.0002282,-0.0352717,-0.0005085,-0.0008747,-0.0008766
1.5075000,1.5075000,1.5075000,-0.0005034,-0.0002271,-0.0350956,-0.0005034,-0.0008682,-0.0008661
1.5100000,1.5100000,1.5100000,-0.0004984,-0.0002260,-0.0349207,-0.0004984,-0.0008617,-0.0008557
1.5125000,1.5125000,1.5125000,-0.0004934,-0.0002249,-0.0347470,-0.0004934,-0.0008554,-0.0008454
1.5150000,1.5150000,1.5150000,-0.0004885,-0.0002237,-0.0345744,-0.0004885,-0.0008490,-0.0008353
1.5175000,1.5175000,1.5175000,-0.0004837,-0.0002226,-0.0344029,-0.0004837,-0.0008428,-0.0008253
1.5200000,1.5200000,1.5200000,-0.0004789,-0.0002215,-0.0342326,-0.0004789,-0.0008366,-0.0008155
1.5225000,1.5225000,1.5225000,-0.0004741,-0.0002204,-0.0340634,-0.0004741,-0.0008305,-0.0008057
1.5250000,1.5250000,1.5250000,-0.0004695,-0.0002194,-0.0338953,-0.0004695,-0.0008244,-0.0007961
1.5275000,1.5275000,1.5275000,-0.0004648,-0.0002183,-0.0337284,-0.0004648,-0.0008184,-0.0007866
1.5300000,1.5300000,1.5300000,-0.0004602,-0.0002172,-0.0335625,-0.0004602,-0.0008124,-0.0007772
1.5325000,1.5325000,1.5325000,-0.0004557,-0.0002162,-0.0333977,-0.0004557,-0.0008065,-0.0007679
1.5350000,1.5350000,1.5350000,-0.0004512,-0.0002151,-0.0332340,-0.0004512,-0.0008007,-0.0007587
1.5375000,1.5375000,1.5375000,-0.0004468,-0.0002141,-0.0330713,-0.0004468,-0.0007949,-0.0007497
1.5400000,1.5400000,1.5400000,-0.0004425,-0.0002130,-0.0329097,-0.0004425,-0.0007892,-0.0007407
1.5425000,1.5425000,1.5425000,-0.0004381,-0.0002120,-0.0327492,-0.0004381,-0.0007835,-0.0007319
1.5450000,1.5450000,1.5450000,-0.0004339,-0.0002110,-0.0325897,-0.0004339,-0.0007779,-0.0007232
1.5475000,1.5475000,1.5475000,-0.0004296,-0.0002099,-0.0324313,-0.0004296,-0.0007723,-0.0007146
1.5500000,1.5500000,1.5500000,-0.0004255,-0.0002089,-0.0322738,-0.0004255,-0.0007668,-0.0007061
1.5525000,1.5525000,1.5525000,-0.0004213,-0.0002079,-0.0321174,-0.0004213,-0.0007613,-0.0006976
1.5550000,1.5550000,1.5550000,-0.0004172,-0.0002069,-0.0319620,-0.0004172,-0.0007559,-0.0006893
1.5575000,1.5575000,1.5575000,-0.0004132,-0.0002059,-0.0318076,-0.0004132,-0.0007506,-0.0006811
1.5600000,1.5600000,1.5600000,-0.0004092,-0.0002049,-0.0316542,-0.0004092,-0.0007453,-0.0006730
1.5625000,1.5625000,1.5625000,-0.0004053,-0.0002039,-0.0315018,-0.0004053,-0.0007400,-0.0006650
1.5650000,1.5650000,1.5650000,-0.0004014,-0.0002030,-0.0313504,-0.0004014,-0.0007348,-0.0006571
1.5675000,1.5675000,1.5675000,-0.0003975,-0.0002020,-0.0311999,-0.0003975,-0.0007296,-0.0006493
1.5700000,1.5700000,1.5700000,-0.0003937,-0.0002010,-0.0310504,-0.0003937,-0.0007245,-0.0006416
1.5725000,1.5725000,1.5725000,-0.0003899,-0.0002001,-0.0309019,-0.0003899,-0.0007195,-0.0006340
1.5750000,1.5750000,1.5750000,-0.0003862,-0.0001991,-0.0307543,-0.0003862,-0.0007144,-0.0006264
1.5775000,1.5775000,1.5775000,-0.0003825,-0.0001982,-0.0306076,-0.0003825,-0.0007095,-0.0006190
1.5800000,1.5800000,1.5800000,-0.0003789,-0.0001972,-0.0304619,-0.0003789,-0.0007046,-0.0006116
1.5825000,1.5825000,1.5825000,-0.0003753,-0.0001963,-0.0303171,-0.0003753,-0.0006997,-0.0006044
1.5850000,1.5850000,1.5850000,-0.0003717,-0.0001954,-0.0301732,-0.0003717,-0.0006948,-0.0005972
1.5875000,1.5875000,1.5875000,-0.0003682,-0.0001944,-0.0300302,-0.0003682,-0.0006901,-0.0005901
1.5900000,1.5900000,1.5900000,-0.0003647,-0.0001935,-0.0298881,-0.0003647,-0.0006853,-0.0005831
1.5925000,1.5925000,1.5925000,-0.0003612,-0.0001926,-0.0297469,-0.0003612,-0.0006806,-0.0005762
1.5950000,1.5950000,1.5950000,-0.0003578,-0.0001917,-0.0296067,-0.0003578,-0.0006760,-0.0005693
1.5975000,1.5975000,1.5975000,-0.0003545,-0.0001908,-0.0294672,-0.0003545,-0.0006713,-0.0005626
