# r[nm],d[nm],daligned[nm],U(d)[kj/mol],V(d)[e/nm],Uslab(d)[kJ/mol],UC(d)[kJ/mol],UK(d)[kJ/mol],UCl(d)[kJ/mol]
0.1850000,0.1850000,0.1850000,1687.2633684,0.9528589,107.4466419,1687.2633684,1062.4911054,inf
0.1875000,0.1875000,0.1875000,1469.2900018,0.9418868,93.6632614,1469.2900018,924.9317541,inf
0.1900000,0.1900000,0.1900000,1280.9981953,0.9307013,81.7532208,1280.9981953,806.1866082,inf
0.1925000,0.1925000,0.1925000,1118.1459696,0.9193426,71.4438630,1118.1459696,703.5576779,inf
0.1950000,0.1950000,0.1950000,977.1269226,0.9078474,62.5062488,977.1269226,614.7524803,inf
0.1975000,0.1975000,0.1975000,854.8706380,0.8962490,54.7460195,854.8706380,537.8202961,inf
0.2000000,0.2000000,0.2000000,748.7593696,0.8845777,47.9971635,748.7593696,471.0988762,inf
0.2025000,0.2025000,0.2025000,656.5582337,0.8728609,42.1177134,656.5582337,413.1698195,inf
0.2050000,0.2050000,0.2050000,576.3566311,0.8611231,36.9863970,576.3566311,362.8211509,inf
0.2075000,0.2075000,0.2075000,506.5190204,0.8493867,32.4996677,506.5190204,319.0158927,inf
0.2100000,0.2100000,0.2100000,445.6434884,0.8376716,28.5690259,445.6434884,280.8656303,inf
0.2125000,0.2125000,0.2125000,392.5268328,0.8259958,25.1187817,392.5268328,247.6082449,1686.0833672
0.2150000,0.2150000,0.2150000,346.1350912,0.8143753,22.0843004,346.1350912,218.5891275,1486.8238871
0.2175000,0.2175000,0.2175000,305.5786334,0.8028244,19.4105203,305.5786334,193.2452969,1312.3308994
0.2200000,0.2200000,0.2200000,270.0910798,0.7913556,17.0504369,270.0910798,171.0919196,1159.3746853
0.2225000,0.2225000,0.2225000,239.0114341,0.7799795,14.9634510,239.0114341,151.7107825,1025.1671369
0.2250000,0.2250000,0.2250000,211.7689163,0.7687024,13.1138347,211.7689163,134.7403204,907.2985979
0.2275000,0.2275000,0.2275000,187.8700601,0.7575182,11.4697138,187.8700601,119.8669067,803.6841240
0.2300000,0.2300000,0.2300000,166.8876997,0.7463861,10.0027057,166.8876997,106.8172725,712.5177029
0.2325000,0.2325000,0.2325000,148.4515211,0.7351858,8.6879890,148.4515211,95.3520917,632.2332076
0.2350000,0.2350000,0.2350000,132.2399111,0.7236488,7.5044633,132.2399111,85.2608620,561.4710539
0.2375000,0.2375000,0.2375000,117.9729052,0.7112753,6.4347793,117.9729052,76.3581910,499.0496942
0.2400000,0.2400000,0.2400000,105.4061027,0.6972670,5.4651461,105.4061027,68.4814464,443.9412181
0.2425000,0.2425000,0.2425000,94.3254746,0.6805042,4.5848964,94.3254746,61.4894664,395.2504438
0.2450000,0.2450000,0.2450000,84.5430122,0.6595998,3.7858468,84.5430122,55.2617030,352.1969805
0.2475000,0.2475000,0.2475000,75.8931817,0.6330527,3.0615640,75.8931817,49.6969967,314.0998215
0.2500000,0.2500000,0.2500000,68.2301433,0.5995127,2.4066829,68.2301433,44.7114110,280.3640945
0.2525000,0.2525000,0.2525000,61.4256566,0.5581374,1.8163837,61.4256566,40.2351802,250.4696505
0.2550000,0.2550000,0.2550000,55.3675171,0.5089592,1.2860646,55.3675171,36.2094188,223.9612199
0.2575000,0.2575000,0.2575000,49.9582812,0.4531186,0.8111847,49.9582812,32.5833790,200.4399052
0.2600000,0.2600000,0.2600000,45.1140224,0.3928242,0.3872226,45.1140224,29.3126863,179.5558170
0.2625000,0.2625000,0.2625000,40.7629471,0.3310009,0.0097002,40.7629471,26.3584648,161.0016941
0.2650000,0.2650000,0.2650000,36.8438627,0.2707435,-0.3257646,36.8438627,23.6869201,144.5073710
0.2675000,0.2675000,0.2675000,33.3046466,0.2147704,-0.6233921,33.3046466,21.2689422,129.8349749
0.2700000,0.2700000,0.2700000,30.1009133,0.1650427,-0.8871765,30.1009133,19.0795175,116.7747423
0.2725000,0.2725000,0.2725000,27.1949742,0.1226029,-1.1208302,27.1949742,17.0969993,105.1413665
0.2750000,0.2750000,0.2750000,24.5550048,0.0876121,-1.3277424,24.5550048,15.3023958,94.7708117
0.2775000,0.2775000,0.2775000,22.1542407,0.0595309,-1.5109565,22.1542407,13.6788043,85.5175611
0.2800000,0.2800000,0.2800000,19.9700942,0.0373792,-1.6731674,19.9700942,12.2110179,77.2522773
0.2825000,0.2825000,0.2825000,17.9832280,0.0200031,-1.8167417,17.9832280,10.8852620,69.8598507
0.2850000,0.2850000,0.2850000,16.1767178,0.0062899,-1.9437579,16.1767178,9.6890024,63.2377937
0.2875000,0.2875000,0.2875000,14.5354132,-0.0047020,-2.0560583,14.5354132,8.6107833,57.2949387
0.2900000,0.2900000,0.2900000,13.0455220,-0.0136955,-2.1552977,13.0455220,7.6400833,51.9504023
0.2925000,0.2925000,0.2925000,11.6943714,-0.0212051,-2.2429776,11.6943714,6.7671912,47.1327703
0.2950000,0.2950000,0.2950000,10.4702701,-0.0275762,-2.3204563,10.4702701,5.9831096,42.7794332
0.2975000,0.2975000,0.2975000,9.3624136,-0.0330329,-2.3889379,9.3624136,5.2794879,38.8359774
0.3000000,0.3000000,0.3000000,8.3608009,-0.0377190,-2.4494503,8.3608009,4.6485842,35.2555472
0.3025000,0.3025000,0.3025000,7.4561572,-0.0417297,-2.5028275,7.4561572,4.0832468,31.9981290
0.3050000,0.3050000,0.3050000,6.6398671,-0.0451334,-2.5497079,6.6398671,3.5769060,29.0297431
0.3075000,0.3075000,0.3075000,5.9039244,-0.0479852,-2.5905523,5.9039244,3.1235649,26.3215647
0.3100000,0.3100000,0.3100000,5.2409005,-0.0503355,-2.6256787,5.2409005,2.7177821,23.8490179
0.3125000,0.3125000,0.3125000,4.6439259,-0.0522337,-2.6553063,4.6439259,2.3546404,21.5909057
0.3150000,0.3150000,0.3150000,4.1066779,-0.0537297,-2.6795982,4.1066779,2.0297021,19.5286473
0.3175000,0.3175000,0.3175000,3.6233670,-0.0548736,-2.6986991,3.6233670,1.7389577,17.6456709
0.3200000,0.3200000,0.3200000,3.1887153,-0.0557133,-2.7127619,3.1887153,1.4787740,15.9269811
0.3225000,0.3225000,0.3225000,2.7979249,-0.0562937,-2.7219642,2.7979249,1.2458512,14.3588799
0.3250000,0.3250000,0.3250000,2.4466362,-0.0566542,-2.7265155,2.4466362,1.0371920,12.9288002
0.3275000,0.3275000,0.3275000,2.1308829,-0.0568287,-2.7266573,2.1308829,0.8500823,11.6252015
0.3300000,0.3300000,0.3300000,1.8470475,-0.0568446,-2.7226590,1.8470475,0.6820793,10.4374924
0.3325000,0.3325000,0.3325000,1.5918254,-0.0567236,-2.7148109,1.5918254,0.5310034,9.3559550
0.3350000,0.3350000,0.3350000,1.3621985,-0.0564821,-2.7034167,1.3621985,0.3949284,8.3716682
0.3375000,0.3375000,0.3375000,1.1554176,-0.0561318,-2.6887857,1.1554176,0.2721699,7.4764312
0.3400000,0.3400000,0.3400000,0.9689924,-0.0556809,-2.6712263,0.9689924,0.1612674,6.6626941
0.3425000,0.3425000,0.3425000,0.8006830,-0.0551343,-2.6510404,0.8006830,0.0609625,5.9235000
0.3450000,0.3450000,0.3450000,0.6484919,-0.0544949,-2.6285190,0.6484919,-0.0298286,5.2524375
0.3475000,0.3475000,0.3475000,0.5106542,-0.0537644,-2.6039388,0.5106542,-0.1120454,4.6436021
0.3500000,0.3500000,0.3500000,0.3856231,-0.0529442,-2.5775604,0.3856231,-0.1865144,4.0915608
0.3525000,0.3525000,0.3525000,0.2720517,-0.0520360,-2.5496268,0.2720517,-0.2539775,3.5913185
0.3550000,0.3550000,0.3550000,0.1687687,-0.0510419,-2.5203626,0.1687687,-0.3151132,3.1382829
0.3575000,0.3575000,0.3575000,0.0747503,-0.0499636,-2.4899743,0.0747503,-0.3705497,2.7282284
0.3600000,0.3600000,0.3600000,-0.0109087,-0.0488018,-2.4586504,-0.0109087,-0.4208684,2.3572611
0.3625000,0.3625000,0.3625000,-0.0890227,-0.0475553,-2.4265622,-0.0890227,-0.4666021,2.0217875
0.3650000,0.3650000,0.3650000,-0.1603355,-0.0462214,-2.3938644,-0.1603355,-0.5082284,1.7184889
0.3675000,0.3675000,0.3675000,-0.2255331,-0.0447961,-2.3606965,-0.2255331,-0.5461633,1.4443018
0.3700000,0.3700000,0.3700000,-0.2852478,-0.0432754,-2.3271834,-0.2852478,-0.5807533,1.1964043
0.3725000,0.3725000,0.3725000,-0.3400558,-0.0416569,-2.2934367,-0.3400558,-0.6122706,0.9722062
0.3750000,0.3750000,0.3750000,-0.3904709,-0.0399410,-2.2595559,-0.3904709,-0.6409114,0.7693421
0.3775000,0.3775000,0.3775000,-0.4369358,-0.0381326,-2.2256292,-0.4369358,-0.6668007,0.5856639
0.3800000,0.3800000,0.3800000,-0.4798151,-0.0362416,-2.1917344,-0.4798151,-0.6900040,0.4192339
0.3825000,0.3825000,0.3825000,-0.5193892,-0.0342833,-2.1579403,-0.5193892,-0.7105437,0.2683144
0.3850000,0.3850000,0.3850000,-0.5558544,-0.0322781,-2.1243070,-0.5558544,-0.7284192,0.1313551
0.3875000,0.3875000,0.3875000,-0.5893299,-0.0302503,-2.0908874,-0.5893299,-0.7436261,0.0069746
0.3900000,0.3900000,0.3900000,-0.6198710,-0.0282263,-2.0577271,-0.6198710,-0.7561713,-0.1060596
0.3925000,0.3925000,0.3925000,-0.6474879,-0.0262327,-2.0248659,-0.6474879,-0.7660851,-0.2088543
0.3950000,0.3950000,0.3950000,-0.6721666,-0.0242946,-1.9923381,-0.6721666,-0.7734264,-0.3024119
0.3975000,0.3975000,0.3975000,-0.6938892,-0.0224340,-1.9601728,-0.6938892,-0.7782845,-0.3876480
0.4000000,0.4000000,0.4000000,-0.7126504,-0.0206684,-1.9283948,-0.7126504,-0.7807769,-0.4654031
0.4025000,0.4025000,0.4025000,-0.7284692,-0.0190111,-1.8970252,-0.7284692,-0.7810447,-0.5364478
0.4050000,0.4050000,0.4050000,-0.7413952,-0.0174707,-1.8660812,-0.7413952,-0.7792469,-0.6014822
0.4075000,0.4075000,0.4075000,-0.7515111,-0.0160514,-1.8355771,-0.7515111,-0.7755548,-0.6611308
0.4100000,0.4100000,0.4100000,-0.7589302,-0.0147539,-1.8055244,-0.7589302,-0.7701456,-0.7159354
0.4125000,0.4125000,0.4125000,-0.7637927,-0.0135760,-1.7759321,-0.7637927,-0.7631982,-0.7663481
0.4150000,0.4150000,0.4150000,-0.7662597,-0.0125131,-1.7468070,-0.7662597,-0.7548886,-0.8127281
0.4175000,0.4175000,0.4175000,-0.7665072,-0.0115590,-1.7181541,-0.7665072,-0.7453865,-0.8553431
0.4200000,0.4200000,0.4200000,-0.7647203,-0.0107066,-1.6899765,-0.7647203,-0.7348536,-0.8943774
0.4225000,0.4225000,0.4225000,-0.7610876,-0.0099480,-1.6622758,-0.7610876,-0.7234411,-0.9299457
0.4250000,0.4250000,0.4250000,-0.7557971,-0.0092751,-1.6350525,-0.7557971,-0.7112893,-0.9621104
0.4275000,0.4275000,0.4275000,-0.7490319,-0.0086802,-1.6083056,-0.7490319,-0.6985271,-0.9909010
0.4300000,0.4300000,0.4300000,-0.7409680,-0.0081552,-1.5820335,-0.7409680,-0.6852716,-1.0163331
0.4325000,0.4325000,0.4325000,-0.7317720,-0.0076931,-1.5562333,-0.7317720,-0.6716286,-1.0384236
0.4350000,0.4350000,0.4350000,-0.7215998,-0.0072868,-1.5309016,-0.7215998,-0.6576930,-1.0572036
0.4375000,0.4375000,0.4375000,-0.7105960,-0.0069301,-1.5060341,-0.7105960,-0.6435494,-1.0727259
0.4400000,0.4400000,0.4400000,-0.6988933,-0.0066172,-1.4816263,-0.6988933,-0.6292725,-1.0850695
0.4425000,0.4425000,0.4425000,-0.6866128,-0.0063428,-1.4576728,-0.6866128,-0.6149285,-1.0943399
0.4450000,0.4450000,0.4450000,-0.6738641,-0.0061022,-1.4341680,-0.6738641,-0.6005749,-1.1006677
0.4475000,0.4475000,0.4475000,-0.6607459,-0.0058911,-1.4111058,-0.6607459,-0.5862622,-1.1042048
0.4500000,0.4500000,0.4500000,-0.6473467,-0.0057057,-1.3884801,-0.6473467,-0.5720338,-1.1051202
0.4525000,0.4525000,0.4525000,-0.6337450,-0.0055428,-1.3662841,-0.6337450,-0.5579272,-1.1035950
0.4550000,0.4550000,0.4550000,-0.6200107,-0.0053994,-1.3445113,-0.6200107,-0.5439743,-1.0998180
0.4575000,0.4575000,0.4575000,-0.6062052,-0.0052727,-1.3231546,-0.6062052,-0.5302023,-1.0939812
0.4600000,0.4600000,0.4600000,-0.5923825,-0.0051606,-1.3022071,-0.5923825,-0.5166338,-1.0862761
0.4625000,0.4625000,0.4625000,-0.5785896,-0.0050611,-1.2816616,-0.5785896,-0.5032879,-1.0768905
0.4650000,0.4650000,0.4650000,-0.5648677,-0.0049723,-1.2615110,-0.5648677,-0.4901799,-1.0660063
0.4675000,0.4675000,0.4675000,-0.5512519,-0.0048927,-1.2417481,-0.5512519,-0.4773224,-1.0537972
0.4700000,0.4700000,0.4700000,-0.5377727,-0.0048210,-1.2223655,-0.5377727,-0.4647252,-1.0404279
0.4725000,0.4725000,0.4725000,-0.5244559,-0.0047561,-1.2033562,-0.5244559,-0.4523958,-1.0260527
0.4750000,0.4750000,0.4750000,-0.5113235,-0.0046968,-1.1847129,-0.5113235,-0.4403399,-1.0108152
0.4775000,0.4775000,0.4775000,-0.4983937,-0.0046424,-1.1664284,-0.4983937,-0.4285610,-0.9948484
0.4800000,0.4800000,0.4800000,-0.4856818,-0.0045921,-1.1484957,-0.4856818,-0.4170614,-0.9782741
0.4825000,0.4825000,0.4825000,-0.4732002,-0.0045453,-1.1309076,-0.4732002,-0.4058420,-0.9612039
0.4850000,0.4850000,0.4850000,-0.4609588,-0.0045013,-1.1136573,-0.4609588,-0.3949026,-0.9437391
0.4875000,0.4875000,0.4875000,-0.4489654,-0.0044597,-1.0967378,-0.4489654,-0.3842417,-0.9259713
0.4900000,0.4900000,0.4900000,-0.4372258,-0.0044201,-1.0801423,-0.4372258,-0.3738575,-0.9079831
0.4925000,0.4925000,0.4925000,-0.4257443,-0.0043822,-1.0638641,-0.4257443,-0.3637470,-0.8898485
0.4950000,0.4950000,0.4950000,-0.4145236,-0.0043456,-1.0478966,-0.4145236,-0.3539068,-0.8716335
0.4975000,0.4975000,0.4975000,-0.4035652,-0.0043100,-1.0322332,-0.4035652,-0.3443330,-0.8533969
0.5000000,0.5000000,0.5000000,-0.3928694,-0.0042754,-1.0168676,-0.3928694,-0.3350213,-0.8351907
0.5025000,0.5025000,0.5025000,-0.3824357,-0.0042414,-1.0017934,-0.3824357,-0.3259669,-0.8170607
0.5050000,0.5050000,0.5050000,-0.3722626,-0.0042080,-0.9870045,-0.3722626,-0.3171649,-0.7990471
0.5075000,0.5075000,0.5075000,-0.3623480,-0.0041749,-0.9724947,-0.3623480,-0.3086101,-0.7811851
0.5100000,0.5100000,0.5100000,-0.3526893,-0.0041422,-0.9582582,-0.3526893,-0.3002972,-0.7635050
0.5125000,0.5125000,0.5125000,-0.3432831,-0.0041097,-0.9442891,-0.3432831,-0.2922205,-0.7460332
0.5150000,0.5150000,0.5150000,-0.3341259,-0.0040774,-0.9305816,-0.3341259,-0.2843747,-0.7287920
0.5175000,0.5175000,0.5175000,-0.3252136,-0.0040452,-0.9171301,-0.3252136,-0.2767539,-0.7118007
0.5200000,0.5200000,0.5200000,-0.3165419,-0.0040130,-0.9039291,-0.3165419,-0.2693527,-0.6950751
0.5225000,0.5225000,0.5225000,-0.3081062,-0.0039808,-0.8909733,-0.3081062,-0.2621652,-0.6786287
0.5250000,0.5250000,0.5250000,-0.2999019,-0.0039487,-0.8782573,-0.2999019,-0.2551859,-0.6624723
0.5275000,0.5275000,0.5275000,-0.2919240,-0.0039165,-0.8657760,-0.2919240,-0.2484092,-0.6466145
0.5300000,0.5300000,0.5300000,-0.2841675,-0.0038843,-0.8535243,-0.2841675,-0.2418295,-0.6310621
0.5325000,0.5325000,0.5325000,-0.2766274,-0.0038521,-0.8414973,-0.2766274,-0.2354413,-0.6158201
0.5350000,0.5350000,0.5350000,-0.2692985,-0.0038198,-0.8296902,-0.2692985,-0.2292393,-0.6008921
0.5375000,0.5375000,0.5375000,-0.2621757,-0.0037875,-0.8180982,-0.2621757,-0.2232181,-0.5862803
0.5400000,0.5400000,0.5400000,-0.2552539,-0.0037551,-0.8067167,-0.2552539,-0.2173725,-0.5719855
0.5425000,0.5425000,0.5425000,-0.2485279,-0.0037227,-0.7955412,-0.2485279,-0.2116974,-0.5580078
0.5450000,0.5450000,0.5450000,-0.2419925,-0.0036903,-0.7845673,-0.2419925,-0.2061878,-0.5443463
0.5475000,0.5475000,0.5475000,-0.2356428,-0.0036579,-0.7737906,-0.2356428,-0.2008388,-0.5309990
0.5500000,0.5500000,0.5500000,-0.2294738,-0.0036255,-0.7632070,-0.2294738,-0.1956456,-0.5179636
0.5525000,0.5525000,0.5525000,-0.2234804,-0.0035931,-0.7528122,-0.2234804,-0.1906035,-0.5052371
0.5550000,0.5550000,0.5550000,-0.2176579,-0.0035608,-0.7426024,-0.2176579,-0.1857080,-0.4928159
0.5575000,0.5575000,0.5575000,-0.2120015,-0.0035284,-0.7325736,-0.2120015,-0.1809547,-0.4806960
0.5600000,0.5600000,0.5600000,-0.2065065,-0.0034961,-0.7227218,-0.2065065,-0.1763391,-0.4688730
0.5625000,0.5625000,0.5625000,-0.2011682,-0.0034639,-0.7130435,-0.2011682,-0.1718572,-0.4573423
0.5650000,0.5650000,0.5650000,-0.1959823,-0.0034318,-0.7035348,-0.1959823,-0.1675049,-0.4460989
0.5675000,0.5675000,0.5675000,-0.1909442,-0.0033997,-0.6941923,-0.1909442,-0.1632780,-0.4351377
0.5700000,0.5700000,0.5700000,-0.1860497,-0.0033678,-0.6850124,-0.1860497,-0.1591729,-0.4244534
0.5725000,0.5725000,0.5725000,-0.1812946,-0.0033359,-0.6759917,-0.1812946,-0.1551858,-0.4140405
0.5750000,0.5750000,0.5750000,-0.1766747,-0.0033042,-0.6671269,-0.1766747,-0.1513129,-0.4038934
0.5775000,0.5775000,0.5775000,-0.1721862,-0.0032726,-0.6584147,-0.1721862,-0.1475509,-0.3940066
0.5800000,0.5800000,0.5800000,-0.1678251,-0.0032412,-0.6498520,-0.1678251,-0.1438962,-0.3843743
0.5825000,0.5825000,0.5825000,-0.1635875,-0.0032099,-0.6414355,-0.1635875,-0.1403455,-0.3749909
0.5850000,0.5850000,0.5850000,-0.1594700,-0.0031788,-0.6331624,-0.1594700,-0.1368957,-0.3658507
0.5875000,0.5875000,0.5875000,-0.1554687,-0.0031479,-0.6250297,-0.1554687,-0.1335436,-0.3569481
0.5900000,0.5900000,0.5900000,-0.1515804,-0.0031171,-0.6170344,-0.1515804,-0.1302863,-0.3482772
0.5925000,0.5925000,0.5925000,-0.1478015,-0.0030865,-0.6091737,-0.1478015,-0.1271207,-0.3398326
0.5950000,0.5950000,0.5950000,-0.1441288,-0.0030562,-0.6014449,-0.1441288,-0.1240440,-0.3316087
0.5975000,0.5975000,0.5975000,-0.1405591,-0.0030260,-0.5938452,-0.1405591,-0.1210535,-0.3236001
0.6000000,0.6000000,0.6000000,-0.1370893,-0.0029961,-0.5863721,-0.1370893,-0.1181466,-0.3158011
0.6025000,0.6025000,0.6025000,-0.1337164,-0.0029663,-0.5790229,-0.1337164,-0.1153206,-0.3082067
0.6050000,0.6050000,0.6050000,-0.1304375,-0.0029368,-0.5717952,-0.1304375,-0.1125732,-0.3008114
0.6075000,0.6075000,0.6075000,-0.1272497,-0.0029075,-0.5646865,-0.1272497,-0.1099017,-0.2936101
0.6100000,0.6100000,0.6100000,-0.1241504,-0.0028785,-0.5576944,-0.1241504,-0.1073041,-0.2865978
0.6125000,0.6125000,0.6125000,-0.1211367,-0.0028497,-0.5508166,-0.1211367,-0.1047779,-0.2797694
0.6150000,0.6150000,0.6150000,-0.1182063,-0.0028211,-0.5440507,-0.1182063,-0.1023210,-0.2731201
0.6175000,0.6175000,0.6175000,-0.1153564,-0.0027928,-0.5373946,-0.1153564,-0.0999313,-0.2666451
0.6200000,0.6200000,0.6200000,-0.1125849,-0.0027647,-0.5308460,-0.1125849,-0.0976067,-0.2603398
0.6225000,0.6225000,0.6225000,-0.1098892,-0.0027369,-0.5244029,-0.1098892,-0.0953453,-0.2541996
0.6250000,0.6250000,0.6250000,-0.1072671,-0.0027093,-0.5180631,-0.1072671,-0.0931451,-0.2482199
0.6275000,0.6275000,0.6275000,-0.1047164,-0.0026820,-0.5118247,-0.1047164,-0.0910043,-0.2423965
0.6300000,0.6300000,0.6300000,-0.1022349,-0.0026549,-0.5056855,-0.1022349,-0.0889211,-0.2367251
0.6325000,0.6325000,0.6325000,-0.0998207,-0.0026281,-0.4996438,-0.0998207,-0.0868937,-0.2312016
0.6350000,0.6350000,0.6350000,-0.0974717,-0.0026016,-0.4936975,-0.0974717,-0.0849205,-0.2258218
0.6375000,0.6375000,0.6375000,-0.0951859,-0.0025753,-0.4878448,-0.0951859,-0.0829999,-0.2205819
0.6400000,0.6400000,0.6400000,-0.0929615,-0.0025492,-0.4820839,-0.0929615,-0.0811303,-0.2154780
0.6425000,0.6425000,0.6425000,-0.0907966,-0.0025235,-0.4764131,-0.0907966,-0.0793101,-0.2105064
0.6450000,0.6450000,0.6450000,-0.0886895,-0.0024980,-0.4708306,-0.0886895,-0.0775379,-0.2056634
0.6475000,0.6475000,0.6475000,-0.0866385,-0.0024727,-0.4653347,-0.0866385,-0.0758122,-0.2009455
0.6500000,0.6500000,0.6500000,-0.0846418,-0.0024478,-0.4599237,-0.0846418,-0.0741318,-0.1963491
0.6525000,0.6525000,0.6525000,-0.0826980,-0.0024231,-0.4545961,-0.0826980,-0.0724952,-0.1918711
0.6550000,0.6550000,0.6550000,-0.0808055,-0.0023986,-0.4493502,-0.0808055,-0.0709011,-0.1875080
0.6575000,0.6575000,0.6575000,-0.0789627,-0.0023744,-0.4441845,-0.0789627,-0.0693484,-0.1832567
0.6600000,0.6600000,0.6600000,-0.0771683,-0.0023505,-0.4390975,-0.0771683,-0.0678357,-0.1791141
0.6625000,0.6625000,0.6625000,-0.0754207,-0.0023268,-0.4340877,-0.0754207,-0.0663620,-0.1750772
0.6650000,0.6650000,0.6650000,-0.0737186,-0.0023034,-0.4291537,-0.0737186,-0.0649261,-0.1711431
0.6675000,0.6675000,0.6675000,-0.0720607,-0.0022802,-0.4242940,-0.0720607,-0.0635268,-0.1673089
0.6700000,0.6700000,0.6700000,-0.0704458,-0.0022573,-0.4195073,-0.0704458,-0.0621632,-0.1635719
0.6725000,0.6725000,0.6725000,-0.0688725,-0.0022347,-0.4147922,-0.0688725,-0.0608342,-0.1599294
0.6750000,0.6750000,0.6750000,-0.0673397,-0.0022123,-0.4101473,-0.0673397,-0.0595388,-0.1563788
0.6775000,0.6775000,0.6775000,-0.0658462,-0.0021901,-0.4055714,-0.0658462,-0.0582761,-0.1529176
0.6800000,0.6800000,0.6800000,-0.0643909,-0.0021682,-0.4010633,-0.0643909,-0.0570450,-0.1495432
0.6825000,0.6825000,0.6825000,-0.0629727,-0.0021466,-0.3966216,-0.0629727,-0.0558447,-0.1462533
0.6850000,0.6850000,0.6850000,-0.0615905,-0.0021252,-0.3922452,-0.0615905,-0.0546744,-0.1430457
0.6875000,0.6875000,0.6875000,-0.0602433,-0.0021040,-0.3879329,-0.0602433,-0.0535332,-0.1399179
0.6900000,0.6900000,0.6900000,-0.0589301,-0.0020831,-0.3836835,-0.0589301,-0.0524202,-0.1368679
0.6925000,0.6925000,0.6925000,-0.0576500,-0.0020624,-0.3794959,-0.0576500,-0.0513346,-0.1338935
0.6950000,0.6950000,0.6950000,-0.0564019,-0.0020419,-0.3753689,-0.0564019,-0.0502758,-0.1309926
0.6975000,0.6975000,0.6975000,-0.0551851,-0.0020217,-0.3713015,-0.0551851,-0.0492428,-0.1281633
0.7000000,0.7000000,0.7000000,-0.0539986,-0.0020017,-0.3672926,-0.0539986,-0.0482351,-0.1254035
0.7025000,0.7025000,0.7025000,-0.0528416,-0.0019820,-0.3633412,-0.0528416,-0.0472519,-0.1227115
0.7050000,0.7050000,0.7050000,-0.0517132,-0.0019625,-0.3594462,-0.0517132,-0.0462926,-0.1200853
0.7075000,0.7075000,0.7075000,-0.0506127,-0.0019432,-0.3556067,-0.0506127,-0.0453564,-0.1175232
0.7100000,0.7100000,0.7100000,-0.0495392,-0.0019241,-0.3518216,-0.0495392,-0.0444427,-0.1150234
0.7125000,0.7125000,0.7125000,-0.0484921,-0.0019053,-0.3480900,-0.0484921,-0.0435509,-0.1125843
0.7150000,0.7150000,0.7150000,-0.0474706,-0.0018866,-0.3444110,-0.0474706,-0.0426805,-0.1102042
0.7175000,0.7175000,0.7175000,-0.0464740,-0.0018682,-0.3407837,-0.0464740,-0.0418308,-0.1078816
0.7200000,0.7200000,0.7200000,-0.0455016,-0.0018500,-0.3372071,-0.0455016,-0.0410012,-0.1056148
0.7225000,0.7225000,0.7225000,-0.0445528,-0.0018320,-0.3336804,-0.0445528,-0.0401913,-0.1034025
0.7250000,0.7250000,0.7250000,-0.0436268,-0.0018143,-0.3302026,-0.0436268,-0.0394005,-0.1012431
0.7275000,0.7275000,0.7275000,-0.0427231,-0.0017967,-0.3267731,-0.0427231,-0.0386282,-0.0991352
0.7300000,0.7300000,0.7300000,-0.0418411,-0.0017794,-0.3233908,-0.0418411,-0.0378740,-0.0970775
0.7325000,0.7325000,0.7325000,-0.0409802,-0.0017622,-0.3200551,-0.0409802,-0.0371374,-0.0950686
0.7350000,0.7350000,0.7350000,-0.0401399,-0.0017452,-0.3167651,-0.0401399,-0.0364179,-0.0931073
0.7375000,0.7375000,0.7375000,-0.0393194,-0.0017285,-0.3135201,-0.0393194,-0.0357150,-0.0911923
0.7400000,0.7400000,0.7400000,-0.0385184,-0.0017119,-0.3103192,-0.0385184,-0.0350284,-0.0893223
0.7425000,0.7425000,0.7425000,-0.0377364,-0.0016956,-0.3071618,-0.0377364,-0.0343575,-0.0874962
0.7450000,0.7450000,0.7450000,-0.0369727,-0.0016794,-0.3040471,-0.0369727,-0.0337021,-0.0857128
0.7475000,0.7475000,0.7475000,-0.0362269,-0.0016634,-0.3009743,-0.0362269,-0.0330616,-0.0839711
0.7500000,0.7500000,0.7500000,-0.0354986,-0.0016476,-0.2979429,-0.0354986,-0.0324357,-0.0822699
0.7525000,0.7525000,0.7525000,-0.0347872,-0.0016320,-0.2949520,-0.0347872,-0.0318239,-0.0806081
0.7550000,0.7550000,0.7550000,-0.0340924,-0.0016166,-0.2920011,-0.0340924,-0.0312260,-0.0789848
0.7575000,0.7575000,0.7575000,-0.0334137,-0.0016013,-0.2890894,-0.0334137,-0.0306416,-0.0773989
0.7600000,0.7600000,0.7600000,-0.0327507,-0.0015863,-0.2862163,-0.0327507,-0.0300703,-0.0758495
0.7625000,0.7625000,0.7625000,-0.0321029,-0.0015714,-0.2833811,-0.0321029,-0.0295117,-0.0743357
0.7650000,0.7650000,0.7650000,-0.0314700,-0.0015567,-0.2805834,-0.0314700,-0.0289656,-0.0728564
0.7675000,0.7675000,0.7675000,-0.0308515,-0.0015421,-0.2778223,-0.0308515,-0.0284316,-0.0714109
0.7700000,0.7700000,0.7700000,-0.0302472,-0.0015277,-0.2750974,-0.0302472,-0.0279095,-0.0699983
0.7725000,0.7725000,0.7725000,-0.0296566,-0.0015135,-0.2724080,-0.0296566,-0.0273989,-0.0686177
0.7750000,0.7750000,0.7750000,-0.0290794,-0.0014995,-0.2697536,-0.0290794,-0.0268995,-0.0672683
0.7775000,0.7775000,0.7775000,-0.0285152,-0.0014856,-0.2671336,-0.0285152,-0.0264110,-0.0659494
0.7800000,0.7800000,0.7800000,-0.0279637,-0.0014719,-0.2645475,-0.0279637,-0.0259332,-0.0646601
0.7825000,0.7825000,0.7825000,-0.0274246,-0.0014584,-0.2619946,-0.0274246,-0.0254658,-0.0633997
0.7850000,0.7850000,0.7850000,-0.0268976,-0.0014450,-0.2594745,-0.0268976,-0.0250085,-0.0621674
0.7875000,0.7875000,0.7875000,-0.0263823,-0.0014317,-0.2569867,-0.0263823,-0.0245612,-0.0609627
0.7900000,0.7900000,0.7900000,-0.0258785,-0.0014186,-0.2545306,-0.0258785,-0.0241234,-0.0597847
0.7925000,0.7925000,0.7925000,-0.0253859,-0.0014057,-0.2521057,-0.0253859,-0.0236951,-0.0586328
0.7950000,0.7950000,0.7950000,-0.0249042,-0.0013929,-0.2497115,-0.0249042,-0.0232759,-0.0575064
0.7975000,0.7975000,0.7975000,-0.0244331,-0.0013802,-0.2473476,-0.0244331,-0.0228656,-0.0564048
0.8000000,0.8000000,0.8000000,-0.0239723,-0.0013677,-0.2450135,-0.0239723,-0.0224641,-0.0553274
0.8025000,0.8025000,0.8025000,-0.0235216,-0.0013554,-0.2427086,-0.0235216,-0.0220711,-0.0542736
0.8050000,0.8050000,0.8050000,-0.0230808,-0.0013432,-0.2404327,-0.0230808,-0.0216864,-0.0532429
0.8075000,0.8075000,0.8075000,-0.0226496,-0.0013311,-0.2381851,-0.0226496,-0.0213097,-0.0522346
0.8100000,0.8100000,0.8100000,-0.0222277,-0.0013192,-0.2359654,-0.0222277,-0.0209410,-0.0512482
0.8125000,0.8125000,0.8125000,-0.0218150,-0.0013074,-0.2337733,-0.0218150,-0.0205800,-0.0502831
0.8150000,0.8150000,0.8150000,-0.0214111,-0.0012957,-0.2316083,-0.0214111,-0.0202265,-0.0493390
0.8175000,0.8175000,0.8175000,-0.0210160,-0.0012842,-0.2294700,-0.0210160,-0.0198803,-0.0484151
0.8200000,0.8200000,0.8200000,-0.0206293,-0.0012728,-0.2273579,-0.0206293,-0.0195413,-0.0475111
0.8225000,0.8225000,0.8225000,-0.0202509,-0.0012615,-0.2252717,-0.0202509,-0.0192093,-0.0466265
0.8250000,0.8250000,0.8250000,-0.0198806,-0.0012504,-0.2232110,-0.0198806,-0.0188841,-0.0457608
0.8275000,0.8275000,0.8275000,-0.0195182,-0.0012394,-0.2211754,-0.0195182,-0.0185656,-0.0449135
0.8300000,0.8300000,0.8300000,-0.0191634,-0.0012285,-0.2191645,-0.0191634,-0.0182535,-0.0440842
0.8325000,0.8325000,0.8325000,-0.0188161,-0.0012177,-0.2171779,-0.0188161,-0.0179479,-0.0432725
0.8350000,0.8350000,0.8350000,-0.0184761,-0.0012071,-0.2152153,-0.0184761,-0.0176484,-0.0424779
0.8375000,0.8375000,0.8375000,-0.0181433,-0.0011965,-0.2132762,-0.0181433,-0.0173550,-0.0417001
0.8400000,0.8400000,0.8400000,-0.0178175,-0.0011861,-0.2113605,-0.0178175,-0.0170675,-0.0409386
0.8425000,0.8425000,0.8425000,-0.0174984,-0.0011758,-0.2094676,-0.0174984,-0.0167857,-0.0401930
0.8450000,0.8450000,0.8450000,-0.0171860,-0.0011657,-0.2075973,-0.0171860,-0.0165097,-0.0394631
0.8475000,0.8475000,0.8475000,-0.0168801,-0.0011556,-0.2057492,-0.0168801,-0.0162391,-0.0387483
0.8500000,0.8500000,0.8500000,-0.0165805,-0.0011456,-0.2039230,-0.0165805,-0.0159739,-0.0380484
0.8525000,0.8525000,0.8525000,-0.0162871,-0.0011358,-0.2021184,-0.0162871,-0.0157140,-0.0373630
0.8550000,0.8550000,0.8550000,-0.0159998,-0.0011261,-0.2003351,-0.0159998,-0.0154592,-0.0366917
0.8575000,0.8575000,0.8575000,-0.0157183,-0.0011165,-0.1985727,-0.0157183,-0.0152094,-0.0360343
0.8600000,0.8600000,0.8600000,-0.0154426,-0.0011069,-0.1968309,-0.0154426,-0.0149645,-0.0353904
0.8625000,0.8625000,0.8625000,-0.0151725,-0.0010975,-0.1951095,-0.0151725,-0.0147244,-0.0347597
0.8650000,0.8650000,0.8650000,-0.0149080,-0.0010882,-0.1934081,-0.0149080,-0.0144890,-0.0341419
0.8675000,0.8675000,0.8675000,-0.0146487,-0.0010790,-0.1917265,-0.0146487,-0.0142582,-0.0335367
0.8700000,0.8700000,0.8700000,-0.0143948,-0.0010699,-0.1900643,-0.0143948,-0.0140319,-0.0329437
0.8725000,0.8725000,0.8725000,-0.0141459,-0.0010609,-0.1884213,-0.0141459,-0.0138099,-0.0323628
0.8750000,0.8750000,0.8750000,-0.0139021,-0.0010520,-0.1867972,-0.0139021,-0.0135922,-0.0317936
0.8775000,0.8775000,0.8775000,-0.0136631,-0.0010432,-0.1851918,-0.0136631,-0.0133787,-0.0312360
0.8800000,0.8800000,0.8800000,-0.0134289,-0.0010345,-0.1836047,-0.0134289,-0.0131693,-0.0306895
0.8825000,0.8825000,0.8825000,-0.0131994,-0.0010259,-0.1820357,-0.0131994,-0.0129639,-0.0301540
0.8850000,0.8850000,0.8850000,-0.0129745,-0.0010173,-0.1804846,-0.0129745,-0.0127623,-0.0296292
0.8875000,0.8875000,0.8875000,-0.0127540,-0.0010089,-0.1789510,-0.0127540,-0.0125646,-0.0291148
0.8900000,0.8900000,0.8900000,-0.0125379,-0.0010005,-0.1774349,-0.0125379,-0.0123707,-0.0286107
0.8925000,0.8925000,0.8925000,-0.0123260,-0.0009923,-0.1759358,-0.0123260,-0.0121804,-0.0281166
0.8950000,0.8950000,0.8950000,-0.0121184,-0.0009841,-0.1744536,-0.0121184,-0.0119936,-0.0276323
0.8975000,0.8975000,0.8975000,-0.0119147,-0.0009761,-0.1729880,-0.0119147,-0.0118104,-0.0271575
0.9000000,0.9000000,0.9000000,-0.0117151,-0.0009681,-0.1715388,-0.0117151,-0.0116306,-0.0266921
0.9025000,0.9025000,0.9025000,-0.0115194,-0.0009602,-0.1701057,-0.0115194,-0.0114541,-0.0262358
0.9050000,0.9050000,0.9050000,-0.0113274,-0.0009523,-0.1686886,-0.0113274,-0.0112809,-0.0257885
0.9075000,0.9075000,0.9075000,-0.0111392,-0.0009446,-0.1672873,-0.0111392,-0.0111110,-0.0253498
0.9100000,0.9100000,0.9100000,-0.0109546,-0.0009369,-0.1659014,-0.0109546,-0.0109441,-0.0249198
0.9125000,0.9125000,0.9125000,-0.0107736,-0.0009294,-0.1645308,-0.0107736,-0.0107803,-0.0244980
0.9150000,0.9150000,0.9150000,-0.0105961,-0.0009219,-0.1631753,-0.0105961,-0.0106195,-0.0240845
0.9175000,0.9175000,0.9175000,-0.0104219,-0.0009145,-0.1618346,-0.0104219,-0.0104617,-0.0236789
0.9200000,0.9200000,0.9200000,-0.0102511,-0.0009071,-0.1605087,-0.0102511,-0.0103067,-0.0232812
0.9225000,0.9225000,0.9225000,-0.0100836,-0.0008999,-0.1591972,-0.0100836,-0.0101545,-0.0228911
0.9250000,0.9250000,0.9250000,-0.0099193,-0.0008927,-0.1578999,-0.0099193,-0.0100051,-0.0225085
0.9275000,0.9275000,0.9275000,-0.0097580,-0.0008856,-0.1566167,-0.0097580,-0.0098584,-0.0221332
0.9300000,0.9300000,0.9300000,-0.0095998,-0.0008785,-0.1553475,-0.0095998,-0.0097143,-0.0217651
0.9325000,0.9325000,0.9325000,-0.0094446,-0.0008716,-0.1540919,-0.0094446,-0.0095728,-0.0214040
0.9350000,0.9350000,0.9350000,-0.0092924,-0.0008647,-0.1528498,-0.0092924,-0.0094339,-0.0210497
0.9375000,0.9375000,0.9375000,-0.0091429,-0.0008578,-0.1516211,-0.0091429,-0.0092974,-0.0207021
0.9400000,0.9400000,0.9400000,-0.0089963,-0.0008511,-0.1504055,-0.0089963,-0.0091634,-0.0203611
0.9425000,0.9425000,0.9425000,-0.0088524,-0.0008444,-0.1492029,-0.0088524,-0.0090317,-0.0200266
0.9450000,0.9450000,0.9450000,-0.0087112,-0.0008378,-0.1480130,-0.0087112,-0.0089023,-0.0196983
0.9475000,0.9475000,0.9475000,-0.0085727,-0.0008313,-0.1468359,-0.0085727,-0.0087752,-0.0193761
0.9500000,0.9500000,0.9500000,-0.0084366,-0.0008248,-0.1456712,-0.0084366,-0.0086504,-0.0190600
0.9525000,0.9525000,0.9525000,-0.0083031,-0.0008184,-0.1445188,-0.0083031,-0.0085277,-0.0187498
0.9550000,0.9550000,0.9550000,-0.0081721,-0.0008120,-0.1433785,-0.0081721,-0.0084072,-0.0184454
0.9575000,0.9575000,0.9575000,-0.0080435,-0.0008058,-0.1422502,-0.0080435,-0.0082888,-0.0181466
0.9600000,0.9600000,0.9600000,-0.0079172,-0.0007995,-0.1411338,-0.0079172,-0.0081724,-0.0178533
0.9625000,0.9625000,0.9625000,-0.0077932,-0.0007934,-0.1400290,-0.0077932,-0.0080581,-0.0175654
0.9650000,0.9650000,0.9650000,-0.0076715,-0.0007873,-0.1389357,-0.0076715,-0.0079457,-0.0172829
0.9675000,0.9675000,0.9675000,-0.0075520,-0.0007813,-0.1378538,-0.0075520,-0.0078352,-0.0170055
0.9700000,0.9700000,0.9700000,-0.0074347,-0.0007753,-0.1367831,-0.0074347,-0.0077267,-0.0167332
0.9725000,0.9725000,0.9725000,-0.0073195,-0.0007694,-0.1357235,-0.0073195,-0.0076200,-0.0164659
0.9750000,0.9750000,0.9750000,-0.0072064,-0.0007635,-0.1346748,-0.0072064,-0.0075151,-0.0162035
0.9775000,0.9775000,0.9775000,-0.0070953,-0.0007578,-0.1336369,-0.0070953,-0.0074120,-0.0159459
0.9800000,0.9800000,0.9800000,-0.0069862,-0.0007520,-0.1326097,-0.0069862,-0.0073107,-0.0156929
0.9825000,0.9825000,0.9825000,-0.0068790,-0.0007463,-0.1315929,-0.0068790,-0.0072110,-0.0154445
0.9850000,0.9850000,0.9850000,-0.0067738,-0.0007407,-0.1305866,-0.0067738,-0.0071131,-0.0152006
0.9875000,0.9875000,0.9875000,-0.0066704,-0.0007352,-0.1295905,-0.0066704,-0.0070167,-0.0149611
0.9900000,0.9900000,0.9900000,-0.0065689,-0.0007296,-0.1286045,-0.0065689,-0.0069220,-0.0147258
0.9925000,0.9925000,0.9925000,-0.0064692,-0.0007242,-0.1276285,-0.0064692,-0.0068289,-0.0144948
0.9950000,0.9950000,0.9950000,-0.0063713,-0.0007188,-0.1266624,-0.0063713,-0.0067373,-0.0142680
0.9975000,0.9975000,0.9975000,-0.0062750,-0.0007134,-0.1257060,-0.0062750,-0.0066473,-0.0140452
1.0000000,1.0000000,1.0000000,-0.0061805,-0.0007082,-0.1247593,-0.0061805,-0.0065587,-0.0138263
1.0025000,1.0025000,1.0025000,-0.0060876,-0.0007029,-0.1238220,-0.0060876,-0.0064716,-0.0136114
1.0050000,1.0050000,1.0050000,-0.0059964,-0.0006977,-0.1228941,-0.0059964,-0.0063860,-0.0134002
1.0075000,1.0075000,1.0075000,-0.0059067,-0.0006926,-0.1219755,-0.0059067,-0.0063017,-0.0131928
1.0100000,1.0100000,1.0100000,-0.0058186,-0.0006875,-0.1210660,-0.0058186,-0.0062188,-0.0129890
1.0125000,1.0125000,1.0125000,-0.0057321,-0.0006824,-0.1201655,-0.0057321,-0.0061373,-0.0127888
1.0150000,1.0150000,1.0150000,-0.0056470,-0.0006774,-0.1192740,-0.0056470,-0.0060571,-0.0125922
1.0175000,1.0175000,1.0175000,-0.0055634,-0.0006725,-0.1183913,-0.0055634,-0.0059782,-0.0123990
1.0200000,1.0200000,1.0200000,-0.0054812,-0.0006676,-0.1175172,-0.0054812,-0.0059006,-0.0122091
1.0225000,1.0225000,1.0225000,-0.0054005,-0.0006627,-0.1166518,-0.0054005,-0.0058242,-0.0120226
1.0250000,1.0250000,1.0250000,-0.0053211,-0.0006579,-0.1157949,-0.0053211,-0.0057490,-0.0118393
1.0275000,1.0275000,1.0275000,-0.0052432,-0.0006532,-0.1149463,-0.0052432,-0.0056751,-0.0116592
1.0300000,1.0300000,1.0300000,-0.0051665,-0.0006485,-0.1141060,-0.0051665,-0.0056023,-0.0114822
1.0325000,1.0325000,1.0325000,-0.0050911,-0.0006438,-0.1132739,-0.0050911,-0.0055307,-0.0113082
1.0350000,1.0350000,1.0350000,-0.0050170,-0.0006392,-0.1124499,-0.0050170,-0.0054603,-0.0111373
1.0375000,1.0375000,1.0375000,-0.0049442,-0.0006346,-0.1116339,-0.0049442,-0.0053909,-0.0109693
1.0400000,1.0400000,1.0400000,-0.0048726,-0.0006301,-0.1108257,-0.0048726,-0.0053227,-0.0108041
1.0425000,1.0425000,1.0425000,-0.0048022,-0.0006256,-0.1100254,-0.0048022,-0.0052555,-0.0106418
1.0450000,1.0450000,1.0450000,-0.0047330,-0.0006211,-0.1092327,-0.0047330,-0.0051894,-0.0104823
1.0475000,1.0475000,1.0475000,-0.0046650,-0.0006167,-0.1084477,-0.0046650,-0.0051243,-0.0103255
1.0500000,1.0500000,1.0500000,-0.0045981,-0.0006123,-0.1076701,-0.0045981,-0.0050603,-0.0101714
1.0525000,1.0525000,1.0525000,-0.0045323,-0.0006080,-0.1069000,-0.0045323,-0.0049972,-0.0100198
1.0550000,1.0550000,1.0550000,-0.0044676,-0.0006037,-0.1061373,-0.0044676,-0.0049351,-0.0098708
1.0575000,1.0575000,1.0575000,-0.0044040,-0.0005995,-0.1053817,-0.0044040,-0.0048740,-0.0097244
1.0600000,1.0600000,1.0600000,-0.0043415,-0.0005953,-0.1046334,-0.0043415,-0.0048138,-0.0095804
1.0625000,1.0625000,1.0625000,-0.0042800,-0.0005911,-0.1038921,-0.0042800,-0.0047546,-0.0094388
1.0650000,1.0650000,1.0650000,-0.0042195,-0.0005870,-0.1031578,-0.0042195,-0.0046963,-0.0092996
1.0675000,1.0675000,1.0675000,-0.0041599,-0.0005829,-0.1024304,-0.0041599,-0.0046388,-0.0091628
1.0700000,1.0700000,1.0700000,-0.0041014,-0.0005788,-0.1017099,-0.0041014,-0.0045823,-0.0090282
1.0725000,1.0725000,1.0725000,-0.0040438,-0.0005748,-0.1009961,-0.0040438,-0.0045266,-0.0088958
1.0750000,1.0750000,1.0750000,-0.0039872,-0.0005708,-0.1002890,-0.0039872,-0.0044717,-0.0087657
1.0775000,1.0775000,1.0775000,-0.0039315,-0.0005669,-0.0995884,-0.0039315,-0.0044177,-0.0086377
1.0800000,1.0800000,1.0800000,-0.0038767,-0.0005630,-0.0988944,-0.0038767,-0.0043645,-0.0085118
1.0825000,1.0825000,1.0825000,-0.0038228,-0.0005591,-0.0982068,-0.0038228,-0.0043121,-0.0083881
1.0850000,1.0850000,1.0850000,-0.0037698,-0.0005553,-0.0975256,-0.0037698,-0.0042605,-0.0082663
1.0875000,1.0875000,1.0875000,-0.0037176,-0.0005515,-0.0968507,-0.0037176,-0.0042096,-0.0081466
1.0900000,1.0900000,1.0900000,-0.0036663,-0.0005477,-0.0961820,-0.0036663,-0.0041596,-0.0080288
1.0925000,1.0925000,1.0925000,-0.0036157,-0.0005440,-0.0955195,-0.0036157,-0.0041102,-0.0079129
1.0950000,1.0950000,1.0950000,-0.0035660,-0.0005403,-0.0948630,-0.0035660,-0.0040616,-0.0077989
1.0975000,1.0975000,1.0975000,-0.0035171,-0.0005366,-0.0942126,-0.0035171,-0.0040138,-0.0076868
1.1000000,1.1000000,1.1000000,-0.0034690,-0.0005330,-0.0935681,-0.0034690,-0.0039666,-0.0075765
1.1025000,1.1025000,1.1025000,-0.0034217,-0.0005294,-0.0929294,-0.0034217,-0.0039201,-0.0074681
1.1050000,1.1050000,1.1050000,-0.0033751,-0.0005258,-0.0922966,-0.0033751,-0.0038743,-0.0073613
1.1075000,1.1075000,1.1075000,-0.0033292,-0.0005222,-0.0916695,-0.0033292,-0.0038292,-0.0072563
1.1100000,1.1100000,1.1100000,-0.0032841,-0.0005187,-0.0910481,-0.0032841,-0.0037848,-0.0071530
1.1125000,1.1125000,1.1125000,-0.0032396,-0.0005153,-0.0904323,-0.0032396,-0.0037410,-0.0070513
1.1150000,1.1150000,1.1150000,-0.0031959,-0.0005118,-0.0898220,-0.0031959,-0.0036978,-0.0069513
1.1175000,1.1175000,1.1175000,-0.0031529,-0.0005084,-0.0892172,-0.0031529,-0.0036552,-0.0068529
1.1200000,1.1200000,1.1200000,-0.0031105,-0.0005050,-0.0886179,-0.0031105,-0.0036133,-0.0067560
1.1225000,1.1225000,1.1225000,-0.0030688,-0.0005017,-0.0880239,-0.0030688,-0.0035720,-0.0066607
1.1250000,1.1250000,1.1250000,-0.0030278,-0.0004983,-0.0874352,-0.0030278,-0.0035313,-0.0065669
1.1275000,1.1275000,1.1275000,-0.0029874,-0.0004951,-0.0868518,-0.0029874,-0.0034911,-0.0064746
1.1300000,1.1300000,1.1300000,-0.0029476,-0.0004918,-0.0862735,-0.0029476,-0.0034516,-0.0063838
1.1325000,1.1325000,1.1325000,-0.0029084,-0.0004885,-0.0857004,-0.0029084,-0.0034126,-0.0062944
1.1350000,1.1350000,1.1350000,-0.0028699,-0.0004853,-0.0851323,-0.0028699,-0.0033741,-0.0062064
1.1375000,1.1375000,1.1375000,-0.0028319,-0.0004822,-0.0845693,-0.0028319,-0.0033362,-0.0061198
1.1400000,1.1400000,1.1400000,-0.0027945,-0.0004790,-0.0840112,-0.0027945,-0.0032989,-0.0060346
1.1425000,1.1425000,1.1425000,-0.0027577,-0.0004759,-0.0834580,-0.0027577,-0.0032620,-0.0059507
1.1450000,1.1450000,1.1450000,-0.0027215,-0.0004728,-0.0829097,-0.0027215,-0.0032257,-0.0058681
1.1475000,1.1475000,1.1475000,-0.0026858,-0.0004697,-0.0823662,-0.0026858,-0.0031899,-0.0057868
1.1500000,1.1500000,1.1500000,-0.0026507,-0.0004667,-0.0818274,-0.0026507,-0.0031546,-0.0057068
1.1525000,1.1525000,1.1525000,-0.0026161,-0.0004636,-0.0812933,-0.0026161,-0.0031198,-0.0056280
1.1550000,1.1550000,1.1550000,-0.0025820,-0.0004606,-0.0807639,-0.0025820,-0.0030855,-0.0055504
1.1575000,1.1575000,1.1575000,-0.0025485,-0.0004577,-0.0802390,-0.0025485,-0.0030516,-0.0054741
1.1600000,1.1600000,1.1600000,-0.0025154,-0.0004547,-0.0797187,-0.0025154,-0.0030183,-0.0053989
1.1625000,1.1625000,1.1625000,-0.0024829,-0.0004518,-0.0792029,-0.0024829,-0.0029854,-0.0053249
1.1650000,1.1650000,1.1650000,-0.0024508,-0.0004489,-0.0786915,-0.0024508,-0.0029529,-0.0052520
1.1675000,1.1675000,1.1675000,-0.0024192,-0.0004461,-0.0781846,-0.0024192,-0.0029209,-0.0051803
1.1700000,1.1700000,1.1700000,-0.0023881,-0.0004432,-0.0776819,-0.0023881,-0.0028893,-0.0051096
1.1725000,1.1725000,1.1725000,-0.0023575,-0.0004404,-0.0771836,-0.0023575,-0.0028582,-0.0050400
1.1750000,1.1750000,1.1750000,-0.0023273,-0.0004376,-0.0766896,-0.0023273,-0.0028275,-0.0049715
1.1775000,1.1775000,1.1775000,-0.0022976,-0.0004348,-0.0761997,-0.0022976,-0.0027972,-0.0049041
1.1800000,1.1800000,1.1800000,-0.0022683,-0.0004321,-0.0757140,-0.0022683,-0.0027673,-0.0048376
1.1825000,1.1825000,1.1825000,-0.0022394,-0.0004293,-0.0752325,-0.0022394,-0.0027378,-0.0047722
1.1850000,1.1850000,1.1850000,-0.0022110,-0.0004266,-0.0747550,-0.0022110,-0.0027087,-0.0047078
1.1875000,1.1875000,1.1875000,-0.0021830,-0.0004240,-0.0742816,-0.0021830,-0.0026800,-0.0046443
1.1900000,1.1900000,1.1900000,-0.0021554,-0.0004213,-0.0738121,-0.0021554,-0.0026517,-0.0045818
1.1925000,1.1925000,1.1925000,-0.0021282,-0.0004187,-0.0733466,-0.0021282,-0.0026238,-0.0045203
1.1950000,1.1950000,1.1950000,-0.0021015,-0.0004161,-0.0728851,-0.0021015,-0.0025963,-0.0044596
1.1975000,1.1975000,1.1975000,-0.0020751,-0.0004135,-0.0724273,-0.0020751,-0.0025691,-0.0043999
1.2000000,1.2000000,1.2000000,-0.0020491,-0.0004109,-0.0719735,-0.0020491,-0.0025423,-0.0043411
1.2025000,1.2025000,1.2025000,-0.0020234,-0.0004083,-0.0715234,-0.0020234,-0.0025158,-0.0042832
1.2050000,1.2050000,1.2050000,-0.0019982,-0.0004058,-0.0710770,-0.0019982,-0.0024897,-0.0042261
1.2075000,1.2075000,1.2075000,-0.0019733,-0.0004033,-0.0706344,-0.0019733,-0.0024639,-0.0041699
1.2100000,1.2100000,1.2100000,-0.0019488,-0.0004008,-0.0701954,-0.0019488,-0.0024385,-0.0041145
1.2125000,1.2125000,1.2125000,-0.0019246,-0.0003983,-0.0697601,-0.0019246,-0.0024134,-0.0040599
1.2150000,1.2150000,1.2150000,-0.0019008,-0.0003959,-0.0693283,-0.0019008,-0.0023887,-0.0040061
1.2175000,1.2175000,1.2175000,-0.0018773,-0.0003935,-0.0689002,-0.0018773,-0.0023642,-0.0039532
1.2200000,1.2200000,1.2200000,-0.0018542,-0.0003911,-0.0684755,-0.0018542,-0.0023401,-0.0039010
1.2225000,1.2225000,1.2225000,-0.0018314,-0.0003887,-0.0680543,-0.0018314,-0.0023163,-0.0038496
1.2250000,1.2250000,1.2250000,-0.0018089,-0.0003863,-0.0676366,-0.0018089,-0.0022928,-0.0037989
1.2275000,1.2275000,1.2275000,-0.0017867,-0.0003840,-0.0672223,-0.0017867,-0.0022696,-0.0037490
1.2300000,1.2300000,1.2300000,-0.0017649,-0.0003816,-0.0668114,-0.0017649,-0.0022467,-0.0036998
1.2325000,1.2325000,1.2325000,-0.0017434,-0.0003793,-0.0664038,-0.0017434,-0.0022241,-0.0036514
1.2350000,1.2350000,1.2350000,-0.0017222,-0.0003770,-0.0659996,-0.0017222,-0.0022018,-0.0036036
1.2375000,1.2375000,1.2375000,-0.0017012,-0.0003747,-0.0655986,-0.0017012,-0.0021798,-0.0035566
1.2400000,1.2400000,1.2400000,-0.0016806,-0.0003725,-0.0652008,-0.0016806,-0.0021580,-0.0035102
1.2425000,1.2425000,1.2425000,-0.0016603,-0.0003702,-0.0648063,-0.0016603,-0.0021366,-0.0034645
1.2450000,1.2450000,1.2450000,-0.0016402,-0.0003680,-0.0644150,-0.0016402,-0.0021154,-0.0034195
1.2475000,1.2475000,1.2475000,-0.0016205,-0.0003658,-0.0640268,-0.0016205,-0.0020945,-0.0033751
1.2500000,1.2500000,1.2500000,-0.0016010,-0.0003636,-0.0636417,-0.0016010,-0.0020738,-0.0033313
1.2525000,1.2525000,1.2525000,-0.0015818,-0.0003615,-0.0632597,-0.0015818,-0.0020534,-0.0032882
1.2550000,1.2550000,1.2550000,-0.0015628,-0.0003593,-0.0628807,-0.0015628,-0.0020333,-0.0032457
1.2575000,1.2575000,1.2575000,-0.0015441,-0.0003572,-0.0625048,-0.0015441,-0.0020134,-0.0032039
1.2600000,1.2600000,1.2600000,-0.0015257,-0.0003551,-0.0621319,-0.0015257,-0.0019938,-0.0031626
1.2625000,1.2625000,1.2625000,-0.0015075,-0.0003530,-0.0617619,-0.0015075,-0.0019744,-0.0031219
1.2650000,1.2650000,1.2650000,-0.0014896,-0.0003509,-0.0613949,-0.0014896,-0.0019552,-0.0030818
1.2675000,1.2675000,1.2675000,-0.0014720,-0.0003488,-0.0610308,-0.0014720,-0.0019363,-0.0030422
1.2700000,1.2700000,1.2700000,-0.0014545,-0.0003468,-0.0606695,-0.0014545,-0.0019176,-0.0030033
1.2725000,1.2725000,1.2725000,-0.0014374,-0.0003447,-0.0603111,-0.0014374,-0.0018992,-0.0029648
1.2750000,1.2750000,1.2750000,-0.0014204,-0.0003427,-0.0599555,-0.0014204,-0.0018810,-0.0029270
1.2775000,1.2775000,1.2775000,-0.0014037,-0.0003407,-0.0596028,-0.0014037,-0.0018630,-0.0028896
1.2800000,1.2800000,1.2800000,-0.0013872,-0.0003387,-0.0592527,-0.0013872,-0.0018452,-0.0028528
1.2825000,1.2825000,1.2825000,-0.0013710,-0.0003367,-0.0589054,-0.0013710,-0.0018277,-0.0028165
1.2850000,1.2850000,1.2850000,-0.0013549,-0.0003348,-0.0585609,-0.0013549,-0.0018103,-0.0027807
1.2875000,1.2875000,1.2875000,-0.0013391,-0.0003328,-0.0582190,-0.0013391,-0.0017932,-0.0027455
1.2900000,1.2900000,1.2900000,-0.0013235,-0.0003309,-0.0578798,-0.0013235,-0.0017763,-0.0027107
1.2925000,1.2925000,1.2925000,-0.0013081,-0.0003290,-0.0575432,-0.0013081,-0.0017596,-0.0026764
1.2950000,1.2950000,1.2950000,-0.0012929,-0.0003271,-0.0572092,-0.0012929,-0.0017431,-0.0026426
1.2975000,1.2975000,1.2975000,-0.0012780,-0.0003252,-0.0568778,-0.0012780,-0.0017268,-0.0026092
1.3000000,1.3000000,1.3000000,-0.0012632,-0.0003233,-0.0565489,-0.0012632,-0.0017106,-0.0025763
1.3025000,1.3025000,1.3025000,-0.0012486,-0.0003215,-0.0562226,-0.0012486,-0.0016947,-0.0025439
1.3050000,1.3050000,1.3050000,-0.0012342,-0.0003197,-0.0558988,-0.0012342,-0.0016790,-0.0025120
1.3075000,1.3075000,1.3075000,-0.0012201,-0.0003178,-0.0555775,-0.0012201,-0.0016635,-0.0024804
1.3100000,1.3100000,1.3100000,-0.0012061,-0.0003160,-0.0552586,-0.0012061,-0.0016481,-0.0024493
1.3125000,1.3125000,1.3125000,-0.0011923,-0.0003142,-0.0549422,-0.0011923,-0.0016329,-0.0024187
1.3150000,1.3150000,1.3150000,-0.0011786,-0.0003124,-0.0546282,-0.0011786,-0.0016179,-0.0023884
1.3175000,1.3175000,1.3175000,-0.0011652,-0.0003107,-0.0543165,-0.0011652,-0.0016031,-0.0023586
1.3200000,1.3200000,1.3200000,-0.0011519,-0.0003089,-0.0540073,-0.0011519,-0.0015885,-0.0023292
1.3225000,1.3225000,1.3225000,-0.0011388,-0.0003072,-0.0537004,-0.0011388,-0.0015740,-0.0023002
1.3250000,1.3250000,1.3250000,-0.0011259,-0.0003054,-0.0533958,-0.0011259,-0.0015597,-0.0022716
1.3275000,1.3275000,1.3275000,-0.0011132,-0.0003037,-0.0530935,-0.0011132,-0.0015456,-0.0022434
1.3300000,1.3300000,1.3300000,-0.0011006,-0.0003020,-0.0527935,-0.0011006,-0.0015316,-0.0022155
1.3325000,1.3325000,1.3325000,-0.0010882,-0.0003003,-0.0524958,-0.0010882,-0.0015178,-0.0021881
1.3350000,1.3350000,1.3350000,-0.0010759,-0.0002986,-0.0522003,-0.0010759,-0.0015042,-0.0021610
1.3375000,1.3375000,1.3375000,-0.0010639,-0.0002969,-0.0519070,-0.0010639,-0.0014907,-0.0021343
1.3400000,1.3400000,1.3400000,-0.0010519,-0.0002953,-0.0516159,-0.0010519,-0.0014774,-0.0021079
1.3425000,1.3425000,1.3425000,-0.0010402,-0.0002936,-0.0513269,-0.0010402,-0.0014642,-0.0020820
1.3450000,1.3450000,1.3450000,-0.0010285,-0.0002920,-0.0510402,-0.0010285,-0.0014512,-0.0020563
1.3475000,1.3475000,1.3475000,-0.0010171,-0.0002904,-0.0507555,-0.0010171,-0.0014383,-0.0020310
1.3500000,1.3500000,1.3500000,-0.0010057,-0.0002888,-0.0504730,-0.0010057,-0.0014256,-0.0020061
1.3525000,1.3525000,1.3525000,-0.0009946,-0.0002872,-0.0501926,-0.0009946,-0.0014130,-0.0019814
1.3550000,1.3550000,1.3550000,-0.0009835,-0.0002856,-0.0499142,-0.0009835,-0.0014006,-0.0019572
1.3575000,1.3575000,1.3575000,-0.0009727,-0.0002840,-0.0496379,-0.0009727,-0.0013883,-0.0019332
1.3600000,1.3600000,1.3600000,-0.0009619,-0.0002825,-0.0493637,-0.0009619,-0.0013762,-0.0019096
1.3625000,1.3625000,1.3625000,-0.0009513,-0.0002809,-0.0490914,-0.0009513,-0.0013642,-0.0018862
1.3650000,1.3650000,1.3650000,-0.0009408,-0.0002794,-0.0488212,-0.0009408,-0.0013523,-0.0018632
1.3675000,1.3675000,1.3675000,-0.0009305,-0.0002779,-0.0485529,-0.0009305,-0.0013405,-0.0018405
1.3700000,1.3700000,1.3700000,-0.0009203,-0.0002763,-0.0482866,-0.0009203,-0.0013289,-0.0018181
1.3725000,1.3725000,1.3725000,-0.0009102,-0.0002748,-0.0480223,-0.0009102,-0.0013175,-0.0017960
1.3750000,1.3750000,1.3750000,-0.0009003,-0.0002733,-0.0477599,-0.0009003,-0.0013061,-0.0017742
1.3775000,1.3775000,1.3775000,-0.0008905,-0.0002719,-0.0474994,-0.0008905,-0.0012949,-0.0017527
1.3800000,1.3800000,1.3800000,-0.0008808,-0.0002704,-0.0472407,-0.0008808,-0.0012838,-0.0017314
1.3825000,1.3825000,1.3825000,-0.0008712,-0.0002689,-0.0469840,-0.0008712,-0.0012728,-0.0017105
1.3850000,1.3850000,1.3850000,-0.0008618,-0.0002675,-0.0467291,-0.0008618,-0.0012620,-0.0016898
1.3875000,1.3875000,1.3875000,-0.0008524,-0.0002660,-0.0464761,-0.0008524,-0.0012512,-0.0016694
1.3900000,1.3900000,1.3900000,-0.0008432,-0.0002646,-0.0462249,-0.0008432,-0.0012406,-0.0016492
1.3925000,1.3925000,1.3925000,-0.0008341,-0.0002632,-0.0459754,-0.0008341,-0.0012301,-0.0016294
1.3950000,1.3950000,1.3950000,-0.0008251,-0.0002618,-0.0457278,-0.0008251,-0.0012198,-0.0016097
1.3975000,1.3975000,1.3975000,-0.0008163,-0.0002604,-0.0454820,-0.0008163,-0.0012095,-0.0015904
1.4000000,1.4000000,1.4000000,-0.0008075,-0.0002590,-0.0452379,-0.0008075,-0.0011993,-0.0015713
1.4025000,1.4025000,1.4025000,-0.0007989,-0.0002576,-0.0449956,-0.0007989,-0.0011893,-0.0015524
1.4050000,1.4050000,1.4050000,-0.0007903,-0.0002562,-0.0447550,-0.0007903,-0.0011794,-0.0015338
1.4075000,1.4075000,1.4075000,-0.0007819,-0.0002549,-0.0445161,-0.0007819,-0.0011696,-0.0015154
1.4100000,1.4100000,1.4100000,-0.0007736,-0.0002535,-0.0442789,-0.0007736,-0.0011598,-0.0014973
1.4125000,1.4125000,1.4125000,-0.0007653,-0.0002522,-0.0440434,-0.0007653,-0.0011502,-0.0014794
1.4150000,1.4150000,1.4150000,-0.0007572,-0.0002508,-0.0438095,-0.0007572,-0.0011407,-0.0014617
1.4175000,1.4175000,1.4175000,-0.0007492,-0.0002495,-0.0435774,-0.0007492,-0.0011313,-0.0014443
1.4200000,1.4200000,1.4200000,-0.0007413,-0.0002482,-0.0433468,-0.0007413,-0.0011220,-0.0014271
1.4225000,1.4225000,1.4225000,-0.0007334,-0.0002469,-0.0431179,-0.0007334,-0.0011128,-0.0014101
1.4250000,1.4250000,1.4250000,-0.0007257,-0.0002456,-0.0428906,-0.0007257,-0.0011037,-0.0013933
1.4275000,1.4275000,1.4275000,-0.0007181,-0.0002443,-0.0426649,-0.0007181,-0.0010947,-0.0013768
1.4300000,1.4300000,1.4300000,-0.0007105,-0.0002430,-0.0424407,-0.0007105,-0.0010858,-0.0013604
1.4325000,1.4325000,1.4325000,-0.0007031,-0.0002418,-0.0422182,-0.0007031,-0.0010770,-0.0013443
1.4350000,1.4350000,1.4350000,-0.0006957,-0.0002405,-0.0419972,-0.0006957,-0.0010683,-0.0013284
1.4375000,1.4375000,1.4375000,-0.0006885,-0.0002393,-0.0417777,-0.0006885,-0.0010596,-0.0013126
1.4400000,1.4400000,1.4400000,-0.0006813,-0.0002380,-0.0415598,-0.0006813,-0.0010511,-0.0012971
1.4425000,1.4425000,1.4425000,-0.0006742,-0.0002368,-0.0413433,-0.0006742,-0.0010426,-0.0012818
1.4450000,1.4450000,1.4450000,-0.0006672,-0.0002356,-0.0411284,-0.0006672,-0.0010343,-0.0012667
1.4475000,1.4475000,1.4475000,-0.0006603,-0.0002343,-0.0409150,-0.0006603,-0.0010260,-0.0012517
1.4500000,1.4500000,1.4500000,-0.0006534,-0.0002331,-0.0407030,-0.0006534,-0.0010178,-0.0012370
1.4525000,1.4525000,1.4525000,-0.0006467,-0.0002319,-0.0404925,-0.0006467,-0.0010097,-0.0012224
1.4550000,1.4550000,1.4550000,-0.0006400,-0.0002307,-0.0402835,-0.0006400,-0.0010017,-0.0012080
1.4575000,1.4575000,1.4575000,-0.0006334,-0.0002296,-0.0400758,-0.0006334,-0.0009938,-0.0011938
1.4600000,1.4600000,1.4600000,-0.0006269,-0.0002284,-0.0398697,-0.0006269,-0.0009859,-0.0011798
1.4625000,1.4625000,1.4625000,-0.0006204,-0.0002272,-0.0396649,-0.0006204,-0.0009782,-0.0011660
1.4650000,1.4650000,1.4650000,-0.0006141,-0.0002260,-0.0394615,-0.0006141,-0.0009705,-0.0011523
1.4675000,1.4675000,1.4675000,-0.0006078,-0.0002249,-0.0392595,-0.0006078,-0.0009629,-0.0011388
1.4700000,1.4700000,1.4700000,-0.0006016,-0.0002238,-0.0390589,-0.0006016,-0.0009553,-0.0011255
1.4725000,1.4725000,1.4725000,-0.0005955,-0.0002226,-0.0388597,-0.0005955,-0.0009479,-0.0011123
1.4750000,1.4750000,1.4750000,-0.0005894,-0.0002215,-0.0386618,-0.0005894,-0.0009405,-0.0010993
1.4775000,1.4775000,1.4775000,-0.0005834,-0.0002204,-0.0384653,-0.0005834,-0.0009332,-0.0010865
1.4800000,1.4800000,1.4800000,-0.0005775,-0.0002193,-0.0382700,-0.0005775,-0.0009260,-0.0010738
1.4825000,1.4825000,1.4825000,-0.0005716,-0.0002181,-0.0380762,-0.0005716,-0.0009188,-0.0010613
1.4850000,1.4850000,1.4850000,-0.0005659,-0.0002170,-0.0378836,-0.0005659,-0.0009118,-0.0010489
1.4875000,1.4875000,1.4875000,-0.0005602,-0.0002160,-0.0376923,-0.0005602,-0.0009048,-0.0010367
1.4900000,1.4900000,1.4900000,-0.0005545,-0.0002149,-0.0375023,-0.0005545,-0.0008978,-0.0010247
1.4925000,1.4925000,1.4925000,-0.0005489,-0.0002138,-0.0373136,-0.0005489,-0.0008909,-0.0010127
1.4950000,1.4950000,1.4950000,-0.0005434,-0.0002127,-0.0371261,-0.0005434,-0.0008842,-0.0010010
1.4975000,1.4975000,1.4975000,-0.0005380,-0.0002117,-0.0369399,-0.0005380,-0.0008774,-0.0009894
1.5000000,1.5000000,1.5000000,-0.0005326,-0.0002106,-0.0367549,-0.0005326,-0.0008708,-0.0009779
1.5025000,1.5025000,1.5025000,-0.0005273,-0.0002096,-0.0365712,-0.0005273,-0.0008642,-0.0009666
1.5050000,1.5050000,1.5050000,-0.0005220,-0.0002085,-0.0363887,-0.0005220,-0.0008576,-0.0009554
1.5075000,1.5075000,1.5075000,-0.0005168,-0.0002075,-0.0362074,-0.0005168,-0.0008512,-0.0009443
1.5100000,1.5100000,1.5100000,-0.0005117,-0.0002065,-0.0360273,-0.0005117,-0.0008448,-0.0009334
1.5125000,1.5125000,1.5125000,-0.0005066,-0.0002054,-0.0358484,-0.0005066,-0.0008384,-0.0009226
1.5150000,1.5150000,1.5150000,-0.0005016,-0.0002044,-0.0356707,-0.0005016,-0.0008322,-0.0009120
1.5175000,1.5175000,1.5175000,-0.0004966,-0.0002034,-0.0354942,-0.0004966,-0.0008260,-0.0009014
1.5200000,1.5200000,1.5200000,-0.0004917,-0.0002024,-0.0353188,-0.0004917,-0.0008198,-0.0008911
1.5225000,1.5225000,1.5225000,-0.0004869,-0.0002014,-0.0351446,-0.0004869,-0.0008137,-0.0008808
1.5250000,1.5250000,1.5250000,-0.0004821,-0.0002004,-0.0349715,-0.0004821,-0.0008077,-0.0008706
1.5275000,1.5275000,1.5275000,-0.0004773,-0.0001994,-0.0347996,-0.0004773,-0.0008017,-0.0008606
1.5300000,1.5300000,1.5300000,-0.0004726,-0.0001985,-0.0346288,-0.0004726,-0.0007958,-0.0008507
1.5325000,1.5325000,1.5325000,-0.0004680,-0.0001975,-0.0344591,-0.0004680,-0.0007899,-0.0008409
1.5350000,1.5350000,1.5350000,-0.0004634,-0.0001965,-0.0342905,-0.0004634,-0.0007841,-0.0008313
1.5375000,1.5375000,1.5375000,-0.0004589,-0.0001956,-0.0341230,-0.0004589,-0.0007784,-0.0008217
1.5400000,1.5400000,1.5400000,-0.0004544,-0.0001946,-0.0339566,-0.0004544,-0.0007727,-0.0008123
1.5425000,1.5425000,1.5425000,-0.0004500,-0.0001937,-0.0337913,-0.0004500,-0.0007671,-0.0008030
1.5450000,1.5450000,1.5450000,-0.0004456,-0.0001927,-0.0336270,-0.0004456,-0.0007615,-0.0007938
1.5475000,1.5475000,1.5475000,-0.0004413,-0.0001918,-0.0334638,-0.0004413,-0.0007560,-0.0007847
1.5500000,1.5500000,1.5500000,-0.0004370,-0.0001909,-0.0333017,-0.0004370,-0.0007505,-0.0007757
1.5525000,1.5525000,1.5525000,-0.0004328,-0.0001900,-0.0331406,-0.0004328,-0.0007451,-0.0007669
1.5550000,1.5550000,1.5550000,-0.0004286,-0.0001891,-0.0329806,-0.0004286,-0.0007397,-0.0007581
1.5575000,1.5575000,1.5575000,-0.0004245,-0.0001881,-0.0328216,-0.0004245,-0.0007344,-0.0007494
1.5600000,1.5600000,1.5600000,-0.0004204,-0.0001872,-0.0326636,-0.0004204,-0.0007291,-0.0007409
1.5625000,1.5625000,1.5625000,-0.0004164,-0.0001863,-0.0325066,-0.0004164,-0.0007239,-0.0007324
1.5650000,1.5650000,1.5650000,-0.0004124,-0.0001855,-0.0323506,-0.0004124,-0.0007188,-0.0007240
1.5675000,1.5675000,1.5675000,-0.0004084,-0.0001846,-0.0321957,-0.0004084,-0.0007137,-0.0007158
1.5700000,1.5700000,1.5700000,-0.0004045,-0.0001837,-0.0320417,-0.0004045,-0.0007086,-0.0007076
1.5725000,1.5725000,1.5725000,-0.0004007,-0.0001828,-0.0318887,-0.0004007,-0.0007036,-0.0006996
1.5750000,1.5750000,1.5750000,-0.0003969,-0.0001819,-0.0317366,-0.0003969,-0.0006986,-0.0006916
1.5775000,1.5775000,1.5775000,-0.0003931,-0.0001811,-0.0315856,-0.0003931,-0.0006937,-0.0006837
1.5800000,1.5800000,1.5800000,-0.0003893,-0.0001802,-0.0314354,-0.0003893,-0.0006888,-0.0006759
1.5825000,1.5825000,1.5825000,-0.0003857,-0.0001794,-0.0312863,-0.0003857,-0.0006840,-0.0006683
1.5850000,1.5850000,1.5850000,-0.0003820,-0.0001785,-0.0311381,-0.0003820,-0.0006792,-0.0006607
1.5875000,1.5875000,1.5875000,-0.0003784,-0.0001777,-0.0309908,-0.0003784,-0.0006744,-0.0006532
1.5900000,1.5900000,1.5900000,-0.0003748,-0.0001769,-0.0308444,-0.0003748,-0.0006697,-0.0006457
1.5925000,1.5925000,1.5925000,-0.0003713,-0.0001760,-0.0306990,-0.0003713,-0.0006651,-0.0006384
1.5950000,1.5950000,1.5950000,-0.0003678,-0.0001752,-0.0305545,-0.0003678,-0.0006604,-0.0006312
1.5975000,1.5975000,1.5975000,-0.0003643,-0.0001744,-0.0304109,-0.0003643,-0.0006559,-0.0006240
