# r[nm],d[nm],daligned[nm],U(d)[kj/mol],V(d)[e/nm],Uslab(d)[kJ/mol],UC(d)[kJ/mol],UK(d)[kJ/mol],UCl(d)[kJ/mol]
0.1850000,0.1850000,0.1850000,1680.2069473,1.1148125,605.7387501,1680.2069473,1022.1163970,inf
0.1875000,0.1875000,0.1875000,1487.6640183,1.1017582,500.7123961,1487.6640183,904.8619997,inf
0.1900000,0.1900000,0.1900000,1317.7538749,1.0882595,416.0496460,1317.7538749,801.4748743,inf
0.1925000,0.1925000,0.1925000,1167.7696179,1.0743816,347.3980924,1167.7696179,710.2792765,inf
0.1950000,0.1950000,0.1950000,1035.3319975,1.0601850,291.4201492,1035.3319975,629.8061012,inf
0.1975000,0.1975000,0.1975000,918.3493849,1.0457257,245.5378422,918.3493849,558.7668700,inf
0.2000000,0.2000000,0.2000000,814.9827434,1.0310554,207.7461470,814.9827434,496.0310990,inf
0.2025000,0.2025000,0.2025000,723.6149256,1.0162216,176.4753676,723.6149256,440.6065757,inf
0.2050000,0.2050000,0.2050000,642.8237342,1.0012682,150.4888802,642.8237342,391.6221524,inf
0.2075000,0.2075000,0.2075000,571.3582655,0.9862349,128.8063958,571.3582655,348.3127192,inf
0.2100000,0.2100000,0.2100000,508.1181258,0.9711581,110.6447537,508.1181258,310.0060722,inf
0.2125000,0.2125000,0.2125000,452.1351681,0.9560708,95.3695925,452.1351681,276.1114312,inf
0.2150000,0.2150000,0.2150000,402.5574421,0.9410030,82.4574853,402.5574421,246.1093943,inf
0.2175000,0.2175000,0.2175000,358.6350894,0.9259816,71.4757993,358.6350894,219.5431477,1681.6984062
0.2200000,0.2200000,0.2200000,319.7079514,0.9110307,62.0797409,319.7079514,196.0107703,1497.0317381
0.2225000,0.2225000,0.2225000,285.1946829,0.8961722,54.0086007,285.1946829,175.1584925,1333.3199046
0.2250000,0.2250000,0.2250000,254.5831912,0.8814251,47.0670386,254.5831912,156.6747879,1188.1195781
0.2275000,0.2275000,0.2275000,227.4222401,0.8668064,41.0994361,227.4222401,140.2851857,1059.2779352
0.2300000,0.2300000,0.2300000,203.3140790,0.8523304,35.9715344,203.3140790,125.7477118,944.8979697
0.2325000,0.2325000,0.2325000,181.9079714,0.8380084,31.5625333,181.9079714,112.8488744,843.3078580
0.2350000,0.2350000,0.2350000,162.8945135,0.8238468,27.7633969,162.8945135,101.4001295,753.0339352
0.2375000,0.2375000,0.2375000,146.0006438,0.8098442,24.4772744,146.0006438,91.2347750,672.7768811
0.2400000,0.2400000,0.2400000,130.9852581,0.7959858,21.6200380,130.9852581,82.2052390,601.3907507
0.2425000,0.2425000,0.2425000,117.6353529,0.7822351,19.1203427,117.6353529,74.1807369,537.8645251
0.2450000,0.2450000,0.2450000,105.7626312,0.7685229,16.9192422,105.7626312,67.0452766,481.3058879
0.2475000,0.2475000,0.2475000,95.2005159,0.7547356,14.9694536,95.2005159,60.6959810,430.9269652
0.2500000,0.2500000,0.2500000,85.8015231,0.7407043,13.2341693,85.8015231,55.0416784,386.0317963
0.2525000,0.2525000,0.2525000,77.4349603,0.7262004,11.6853080,77.4349603,50.0016900,346.0053275
0.2550000,0.2550000,0.2550000,69.9849164,0.7109400,10.3013447,69.9849164,45.5047226,310.3037448
0.2575000,0.2575000,0.2575000,63.3485166,0.6945992,9.0651080,63.3485166,41.4877903,278.4459828
0.2600000,0.2600000,0.2600000,57.4344079,0.6768413,7.9619418,57.4344079,37.8951344,250.0062669
0.2625000,0.2625000,0.2625000,52.1614376,0.6573486,6.9784406,52.1614376,34.6771780,224.6075622
0.2650000,0.2650000,0.2650000,47.4574769,0.6358515,6.1017469,47.4574769,31.7896077,201.9158164
0.2675000,0.2675000,0.2675000,43.2583440,0.6121481,5.3192811,43.2583440,29.1926791,181.6349012
0.2700000,0.2700000,0.2700000,39.5067960,0.5861110,4.6187495,39.5067960,26.8507928,163.5021633
0.2725000,0.2725000,0.2725000,36.1515910,0.5576877,3.9882877,36.1515910,24.7323051,147.2845114
0.2750000,0.2750000,0.2750000,33.1466569,0.5269040,3.4166319,33.1466569,22.8094725,132.7749705
0.2775000,0.2775000,0.2775000,30.4504245,0.4938781,2.8932938,30.4504245,21.0584058,119.7896465
0.2800000,0.2800000,0.2800000,28.0253695,0.4588452,2.4088023,28.0253695,19.4589366,108.1650493
0.2825000,0.2825000,0.2825000,25.8377709,0.4221815,1.9550567,25.8377709,17.9943489,97.7557312
0.2850000,0.2850000,0.2850000,23.8576364,0.3844139,1.5257180,23.8576364,16.6509743,88.4322034
0.2875000,0.2875000,0.2875000,22.0587026,0.3462035,1.1164630,22.0587026,15.4176789,80.0790986
0.2900000,0.2900000,0.2900000,20.4184116,0.3083033,0.7249630,20.4184116,14.2852939,72.5935525
0.2925000,0.2925000,0.2925000,18.9177838,0.2714962,0.3505725,18.9177838,13.2460542,65.8837774
0.2950000,0.2950000,0.2950000,17.5411488,0.2365243,-0.0061665,17.5411488,12.2931127,59.8678015
0.2975000,0.2975000,0.2975000,16.2757355,0.2040232,-0.3440586,16.2757355,11.4201780,54.4723464
0.3000000,0.3000000,0.3000000,15.1111580,0.1744718,-0.6617168,15.1111580,10.6212938,49.6318138
0.3025000,0.3025000,0.3025000,14.0388586,0.1481670,-0.9578947,14.0388586,9.8907382,45.2873633
0.3050000,0.3050000,0.3050000,13.0515815,0.1252264,-1.2316871,13.0515815,9.2230020,41.3860723
0.3075000,0.3075000,0.3075000,12.1429392,0.1056130,-1.4826238,12.1429392,8.6128006,37.8801856
0.3100000,0.3100000,0.3100000,11.3071065,0.0891726,-1.7106988,11.3071065,8.0550836,34.7264757
0.3125000,0.3125000,0.3125000,10.5386390,0.0756710,-1.9163718,10.5386390,7.5450240,31.8857334
0.3150000,0.3150000,0.3150000,9.8323878,0.0648256,-2.1005609,9.8323878,7.0779850,29.3223991
0.3175000,0.3175000,0.3175000,9.1834685,0.0563270,-2.2646175,9.1834685,6.6494733,27.0043255
0.3200000,0.3200000,0.3200000,8.5872480,0.0498521,-2.4102579,8.5872480,6.2550936,24.9026431
0.3225000,0.3225000,0.3225000,8.0393262,0.0450716,-2.5394372,8.0393262,5.8905226,22.9916865
0.3250000,0.3250000,0.3250000,7.5355018,0.0416557,-2.6541805,7.5355018,5.5515156,21.2489341
0.3275000,0.3275000,0.3275000,7.0717261,0.0392791,-2.7564100,7.0717261,5.2339560,19.6549137
0.3300000,0.3300000,0.3300000,6.6440535,0.0376263,-2.8478095,6.6440535,4.9339447,18.1930359
0.3325000,0.3325000,0.3325000,6.2486020,0.0363990,-2.9297513,6.2486020,4.6479105,16.8493354
0.3350000,0.3350000,0.3350000,5.8815382,0.0353245,-3.0032857,5.8815382,4.3727123,15.6121272
0.3375000,0.3375000,0.3375000,5.5390919,0.0341648,-3.0691778,5.5390919,4.1057120,14.4716117
0.3400000,0.3400000,0.3400000,5.2176042,0.0327272,-3.1279701,5.2176042,3.8448175,13.4194805
0.3425000,0.3425000,0.3425000,4.9135945,0.0308752,-3.1800521,4.9135945,3.5885164,12.4485663
0.3450000,0.3450000,0.3450000,4.6238332,0.0285367,-3.2257223,4.6238332,3.3359151,11.5525640
0.3475000,0.3475000,0.3475000,4.3454056,0.0257090,-3.2652376,4.3454056,3.0867686,10.7258236
0.3500000,0.3500000,0.3500000,4.0757756,0.0224559,-3.2988470,4.0757756,2.8414648,9.9632027
0.3525000,0.3525000,0.3525000,3.8128613,0.0188969,-3.3268104,3.8128613,2.6009315,9.2599566
0.3550000,0.3550000,0.3550000,3.5551288,0.0151880,-3.3494046,3.5551288,2.3664652,8.6116529
0.3575000,0.3575000,0.3575000,3.3016817,0.0114975,-3.3669205,3.3016817,2.1395120,8.0140981
0.3600000,0.3600000,0.3600000,3.0523042,0.0079807,-3.3796546,3.0523042,1.9214525,7.4632738
0.3625000,0.3625000,0.3625000,2.8074214,0.0047596,-3.3878997,2.8074214,1.7134389,6.9552832
0.3650000,0.3650000,0.3650000,2.5679645,0.0019116,-3.3919354,2.5679645,1.5163069,6.4863107
0.3675000,0.3675000,0.3675000,2.3351686,-0.0005316,-3.3920218,2.3351686,1.3305624,6.0525988
0.3700000,0.3700000,0.3700000,2.1103524,-0.0025767,-3.3883960,2.1103524,1.1564188,5.6504425
0.3725000,0.3725000,0.3725000,1.8947292,-0.0042573,-3.3812731,1.8947292,0.9938594,5.2762000
0.3750000,0.3750000,0.3750000,1.6892826,-0.0056209,-3.3708488,1.6892826,0.8426960,4.9263149
0.3775000,0.3775000,0.3775000,1.4947117,-0.0067185,-3.3573054,1.4947117,0.7026097,4.5973462
0.3800000,0.3800000,0.3800000,1.3114336,-0.0075976,-3.3408173,1.3114336,0.5731611,4.2860092
0.3825000,0.3825000,0.3825000,1.1396164,-0.0082986,-3.3215565,1.1396164,0.4537802,3.9892353
0.3850000,0.3850000,0.3850000,0.9792233,-0.0088536,-3.2996966,0.9792233,0.3437538,3.7042609
0.3875000,0.3875000,0.3875000,0.8300450,-0.0092871,-3.2754150,0.8300450,0.2422371,3.4287419
0.3900000,0.3900000,0.3900000,0.6917135,-0.0096169,-3.2488937,0.6917135,0.1483030,3.1608732
0.3925000,0.3925000,0.3925000,0.5637028,-0.0098551,-3.2203185,0.5637028,0.0610205,2.8994798
0.3950000,0.3950000,0.3950000,0.4453317,-0.0100089,-3.1898778,0.4453317,-0.0204591,2.6440419
0.3975000,0.3975000,0.3975000,0.3357877,-0.0100817,-3.1577598,0.3357877,-0.0968321,2.3946399
0.4000000,0.4000000,0.4000000,0.2341794,-0.0100741,-3.1241508,0.2341794,-0.1686061,2.1518257
0.4025000,0.4025000,0.4025000,0.1396103,-0.0099854,-3.0892327,0.1396103,-0.2360981,1.9164520
0.4050000,0.4050000,0.4050000,0.0512551,-0.0098147,-3.0531811,0.0512551,-0.2994608,1.6894973
0.4075000,0.4075000,0.4075000,-0.0315790,-0.0095622,-3.0161636,-0.0315790,-0.3587255,1.4719178
0.4100000,0.4100000,0.4100000,-0.1094193,-0.0092292,-2.9783390,-0.1094193,-0.4138497,1.2645425
0.4125000,0.4125000,0.4125000,-0.1826228,-0.0088193,-2.9398558,-0.1826228,-0.4647614,1.0680135
0.4150000,0.4150000,0.4150000,-0.2513963,-0.0083376,-2.9008520,-0.2513963,-0.5113945,0.8827596
0.4175000,0.4175000,0.4175000,-0.3158301,-0.0077914,-2.8614552,-0.3158301,-0.5537133,0.7089914
0.4200000,0.4200000,0.4200000,-0.3759382,-0.0071895,-2.8217821,-0.3759382,-0.5917256,0.5467051
0.4225000,0.4225000,0.4225000,-0.4316964,-0.0065419,-2.7819389,-0.4316964,-0.6254866,0.3956906
0.4250000,0.4250000,0.4250000,-0.4830742,-0.0058590,-2.7420219,-0.4830742,-0.6550964,0.2555447
0.4275000,0.4275000,0.4275000,-0.5300578,-0.0051519,-2.7021177,-0.5300578,-0.6806941,0.1256961
0.4300000,0.4300000,0.4300000,-0.5726643,-0.0044309,-2.6623038,-0.5726643,-0.7024520,0.0054459
0.4325000,0.4325000,0.4325000,-0.6109475,-0.0037062,-2.6226492,-0.6109475,-0.7205691,-0.1059799
0.4350000,0.4350000,0.4350000,-0.6449982,-0.0029872,-2.5832151,-0.6449982,-0.7352649,-0.2093697
0.4375000,0.4375000,0.4375000,-0.6749415,-0.0022819,-2.5440554,-0.6749415,-0.7467730,-0.3054714
0.4400000,0.4400000,0.4400000,-0.7009330,-0.0015976,-2.5052175,-0.7009330,-0.7553336,-0.3949492
0.4425000,0.4425000,0.4425000,-0.7231537,-0.0009400,-2.4667423,-0.7231537,-0.7611866,-0.4783574
0.4450000,0.4450000,0.4450000,-0.7418055,-0.0003135,-2.4286654,-0.7418055,-0.7645661,-0.5561332
0.4475000,0.4475000,0.4475000,-0.7571049,0.0002787,-2.3910176,-0.7571049,-0.7656952,-0.6286041
0.4500000,0.4500000,0.4500000,-0.7692770,0.0008347,-2.3538246,-0.7692770,-0.7647846,-0.6960047
0.4525000,0.4525000,0.4525000,-0.7785489,0.0013530,-2.3171085,-0.7785489,-0.7620315,-0.7584998
0.4550000,0.4550000,0.4550000,-0.7851445,0.0018330,-2.2808875,-0.7851445,-0.7576199,-0.8162077
0.4575000,0.4575000,0.4575000,-0.7892803,0.0022744,-2.2451764,-0.7892803,-0.7517222,-0.8692212
0.4600000,0.4600000,0.4600000,-0.7911636,0.0026771,-2.2099873,-0.7911636,-0.7444995,-0.9176244
0.4625000,0.4625000,0.4625000,-0.7909905,0.0030415,-2.1753295,-0.7909905,-0.7361035,-0.9615047
0.4650000,0.4650000,0.4650000,-0.7889468,0.0033680,-2.1412099,-0.7889468,-0.7266763,-1.0009606
0.4675000,0.4675000,0.4675000,-0.7852083,0.0036575,-2.1076336,-0.7852083,-0.7163516,-1.0361053
0.4700000,0.4700000,0.4700000,-0.7799412,0.0039111,-2.0746034,-0.7799412,-0.7052543,-1.0670688
0.4725000,0.4725000,0.4725000,-0.7733031,0.0041302,-2.0421210,-0.7733031,-0.6935011,-1.0939975
0.4750000,0.4750000,0.4750000,-0.7654435,0.0043165,-2.0101862,-0.7654435,-0.6812000,-1.1170531
0.4775000,0.4775000,0.4775000,-0.7565035,0.0044719,-1.9787978,-0.7565035,-0.6684505,-1.1364105
0.4800000,0.4800000,0.4800000,-0.7466166,0.0045985,-1.9479534,-0.7466166,-0.6553439,-1.1522552
0.4825000,0.4825000,0.4825000,-0.7359078,0.0046986,-1.9176497,-0.7359078,-0.6419634,-1.1647794
0.4850000,0.4850000,0.4850000,-0.7244944,0.0047743,-1.8878826,-0.7244944,-0.6283840,-1.1741789
0.4875000,0.4875000,0.4875000,-0.7124851,0.0048279,-1.8586470,-0.7124851,-0.6146732,-1.1806499
0.4900000,0.4900000,0.4900000,-0.6999805,0.0048617,-1.8299376,-0.6999805,-0.6008913,-1.1843868
0.4925000,0.4925000,0.4925000,-0.6870729,0.0048777,-1.8017481,-0.6870729,-0.5870917,-1.1855798
0.4950000,0.4950000,0.4950000,-0.6738468,0.0048781,-1.7740722,-0.6738468,-0.5733215,-1.1844149
0.4975000,0.4975000,0.4975000,-0.6603786,0.0048646,-1.7469028,-0.6603786,-0.5596220,-1.1810722
0.5000000,0.5000000,0.5000000,-0.6467374,0.0048391,-1.7202328,-0.6467374,-0.5460289,-1.1757265
0.5025000,0.5025000,0.5025000,-0.6329852,0.0048033,-1.6940547,-0.6329852,-0.5325732,-1.1685469
0.5050000,0.5050000,0.5050000,-0.6191773,0.0047585,-1.6683609,-0.6191773,-0.5192814,-1.1596969
0.5075000,0.5075000,0.5075000,-0.6053626,0.0047062,-1.6431433,-0.6053626,-0.5061759,-1.1493340
0.5100000,0.5100000,0.5100000,-0.5915842,0.0046476,-1.6183941,-0.5915842,-0.4932756,-1.1376097
0.5125000,0.5125000,0.5125000,-0.5778802,0.0045837,-1.5941052,-0.5778802,-0.4805960,-1.1246693
0.5150000,0.5150000,0.5150000,-0.5642834,0.0045155,-1.5702684,-0.5642834,-0.4681498,-1.1106512
0.5175000,0.5175000,0.5175000,-0.5508224,0.0044438,-1.5468755,-0.5508224,-0.4559474,-1.0956871
0.5200000,0.5200000,0.5200000,-0.5375216,0.0043694,-1.5239184,-0.5375216,-0.4439966,-1.0799010
0.5225000,0.5225000,0.5225000,-0.5244019,0.0042930,-1.5013890,-0.5244019,-0.4323033,-1.0634098
0.5250000,0.5250000,0.5250000,-0.5114808,0.0042151,-1.4792789,-0.5114808,-0.4208718,-1.0463225
0.5275000,0.5275000,0.5275000,-0.4987730,0.0041363,-1.4575803,-0.4987730,-0.4097048,-1.0287403
0.5300000,0.5300000,0.5300000,-0.4862904,0.0040569,-1.4362850,-0.4862904,-0.3988037,-1.0107571
0.5325000,0.5325000,0.5325000,-0.4740428,0.0039774,-1.4153850,-0.4740428,-0.3881687,-0.9924588
0.5350000,0.5350000,0.5350000,-0.4620379,0.0038980,-1.3948726,-0.4620379,-0.3777991,-0.9739243
0.5375000,0.5375000,0.5375000,-0.4502814,0.0038190,-1.3747399,-0.4502814,-0.3676932,-0.9552251
0.5400000,0.5400000,0.5400000,-0.4387775,0.0037407,-1.3549792,-0.4387775,-0.3578487,-0.9364260
0.5425000,0.5425000,0.5425000,-0.4275290,0.0036632,-1.3355830,-0.4275290,-0.3482627,-0.9175857
0.5450000,0.5450000,0.5450000,-0.4165376,0.0035867,-1.3165438,-0.4165376,-0.3389317,-0.8987563
0.5475000,0.5475000,0.5475000,-0.4058037,0.0035114,-1.2978543,-0.4058037,-0.3298517,-0.8799847
0.5500000,0.5500000,0.5500000,-0.3953269,0.0034373,-1.2795072,-0.3953269,-0.3210186,-0.8613122
0.5525000,0.5525000,0.5525000,-0.3851060,0.0033646,-1.2614954,-0.3851060,-0.3124278,-0.8427755
0.5550000,0.5550000,0.5550000,-0.3751389,0.0032932,-1.2438120,-0.3751389,-0.3040745,-0.8244066
0.5575000,0.5575000,0.5575000,-0.3654233,0.0032233,-1.2264502,-0.3654233,-0.2959537,-0.8062335
0.5600000,0.5600000,0.5600000,-0.3559560,0.0031549,-1.2094031,-0.3559560,-0.2880602,-0.7882804
0.5625000,0.5625000,0.5625000,-0.3467337,0.0030880,-1.1926642,-0.3467337,-0.2803890,-0.7705682
0.5650000,0.5650000,0.5650000,-0.3377524,0.0030226,-1.1762271,-0.3377524,-0.2729347,-0.7531144
0.5675000,0.5675000,0.5675000,-0.3290081,0.0029588,-1.1600854,-0.3290081,-0.2656919,-0.7359341
0.5700000,0.5700000,0.5700000,-0.3204964,0.0028965,-1.1442329,-0.3204964,-0.2586554,-0.7190395
0.5725000,0.5725000,0.5725000,-0.3122128,0.0028357,-1.1286636,-0.3122128,-0.2518198,-0.7024408
0.5750000,0.5750000,0.5750000,-0.3041526,0.0027764,-1.1133714,-0.3041526,-0.2451798,-0.6861460
0.5775000,0.5775000,0.5775000,-0.2963110,0.0027187,-1.0983506,-0.2963110,-0.2387302,-0.6701613
0.5800000,0.5800000,0.5800000,-0.2886831,0.0026624,-1.0835955,-0.2886831,-0.2324658,-0.6544914
0.5825000,0.5825000,0.5825000,-0.2812639,0.0026076,-1.0691005,-0.2812639,-0.2263814,-0.6391394
0.5850000,0.5850000,0.5850000,-0.2740484,0.0025542,-1.0548601,-0.2740484,-0.2204720,-0.6241073
0.5875000,0.5875000,0.5875000,-0.2670318,0.0025023,-1.0408690,-0.2670318,-0.2147326,-0.6093958
0.5900000,0.5900000,0.5900000,-0.2602089,0.0024517,-1.0271221,-0.2602089,-0.2091584,-0.5950046
0.5925000,0.5925000,0.5925000,-0.2535750,0.0024024,-1.0136141,-0.2535750,-0.2037445,-0.5809327
0.5950000,0.5950000,0.5950000,-0.2471250,0.0023545,-1.0003401,-0.2471250,-0.1984864,-0.5671782
0.5975000,0.5975000,0.5975000,-0.2408540,0.0023078,-0.9872953,-0.2408540,-0.1933794,-0.5537385
0.6000000,0.6000000,0.6000000,-0.2347575,0.0022624,-0.9744749,-0.2347575,-0.1884190,-0.5406107
0.6025000,0.6025000,0.6025000,-0.2288304,0.0022182,-0.9618741,-0.2288304,-0.1836010,-0.5277910
0.6050000,0.6050000,0.6050000,-0.2230684,0.0021752,-0.9494886,-0.2230684,-0.1789210,-0.5152755
0.6075000,0.6075000,0.6075000,-0.2174667,0.0021333,-0.9373137,-0.2174667,-0.1743750,-0.5030597
0.6100000,0.6100000,0.6100000,-0.2120209,0.0020925,-0.9253452,-0.2120209,-0.1699588,-0.4911390
0.6125000,0.6125000,0.6125000,-0.2067266,0.0020529,-0.9135789,-0.2067266,-0.1656686,-0.4795085
0.6150000,0.6150000,0.6150000,-0.2015796,0.0020143,-0.9020105,-0.2015796,-0.1615006,-0.4681630
0.6175000,0.6175000,0.6175000,-0.1965755,0.0019767,-0.8906361,-0.1965755,-0.1574511,-0.4570972
0.6200000,0.6200000,0.6200000,-0.1917104,0.0019401,-0.8794516,-0.1917104,-0.1535165,-0.4463057
0.6225000,0.6225000,0.6225000,-0.1869803,0.0019044,-0.8684533,-0.1869803,-0.1496932,-0.4357829
0.6250000,0.6250000,0.6250000,-0.1823811,0.0018697,-0.8576372,-0.1823811,-0.1459780,-0.4255233
0.6275000,0.6275000,0.6275000,-0.1779092,0.0018359,-0.8469998,-0.1779092,-0.1423674,-0.4155212
0.6300000,0.6300000,0.6300000,-0.1735607,0.0018030,-0.8365373,-0.1735607,-0.1388584,-0.4057709
0.6325000,0.6325000,0.6325000,-0.1693322,0.0017709,-0.8262464,-0.1693322,-0.1354477,-0.3962668
0.6350000,0.6350000,0.6350000,-0.1652201,0.0017397,-0.8161235,-0.1652201,-0.1321325,-0.3870032
0.6375000,0.6375000,0.6375000,-0.1612210,0.0017092,-0.8061653,-0.1612210,-0.1289098,-0.3779745
0.6400000,0.6400000,0.6400000,-0.1573315,0.0016795,-0.7963684,-0.1573315,-0.1257768,-0.3691751
0.6425000,0.6425000,0.6425000,-0.1535485,0.0016506,-0.7867297,-0.1535485,-0.1227308,-0.3605995
0.6450000,0.6450000,0.6450000,-0.1498688,0.0016224,-0.7772461,-0.1498688,-0.1197691,-0.3522421
0.6475000,0.6475000,0.6475000,-0.1462893,0.0015949,-0.7679144,-0.1462893,-0.1168891,-0.3440977
0.6500000,0.6500000,0.6500000,-0.1428072,0.0015681,-0.7587317,-0.1428072,-0.1140884,-0.3361609
0.6525000,0.6525000,0.6525000,-0.1394195,0.0015420,-0.7496950,-0.1394195,-0.1113646,-0.3284265
0.6550000,0.6550000,0.6550000,-0.1361234,0.0015165,-0.7408015,-0.1361234,-0.1087153,-0.3208892
0.6575000,0.6575000,0.6575000,-0.1329163,0.0014916,-0.7320483,-0.1329163,-0.1061383,-0.3135441
0.6600000,0.6600000,0.6600000,-0.1297956,0.0014673,-0.7234328,-0.1297956,-0.1036314,-0.3063862
0.6625000,0.6625000,0.6625000,-0.1267586,0.0014436,-0.7149523,-0.1267586,-0.1011925,-0.2994106
0.6650000,0.6650000,0.6650000,-0.1238029,0.0014205,-0.7066041,-0.1238029,-0.0988195,-0.2926126
0.6675000,0.6675000,0.6675000,-0.1209262,0.0013979,-0.6983857,-0.1209262,-0.0965105,-0.2859875
0.6700000,0.6700000,0.6700000,-0.1181261,0.0013758,-0.6902946,-0.1181261,-0.0942635,-0.2795307
0.6725000,0.6725000,0.6725000,-0.1154004,0.0013543,-0.6823283,-0.1154004,-0.0920767,-0.2732378
0.6750000,0.6750000,0.6750000,-0.1127469,0.0013333,-0.6744846,-0.1127469,-0.0899484,-0.2671044
0.6775000,0.6775000,0.6775000,-0.1101634,0.0013127,-0.6667609,-0.1101634,-0.0878766,-0.2611263
0.6800000,0.6800000,0.6800000,-0.1076480,0.0012927,-0.6591552,-0.1076480,-0.0858599,-0.2552994
0.6825000,0.6825000,0.6825000,-0.1051986,0.0012730,-0.6516650,-0.1051986,-0.0838965,-0.2496195
0.6850000,0.6850000,0.6850000,-0.1028134,0.0012539,-0.6442884,-0.1028134,-0.0819848,-0.2440828
0.6875000,0.6875000,0.6875000,-0.1004904,0.0012351,-0.6370230,-0.1004904,-0.0801234,-0.2386853
0.6900000,0.6900000,0.6900000,-0.0982278,0.0012168,-0.6298669,-0.0982278,-0.0783107,-0.2334234
0.6925000,0.6925000,0.6925000,-0.0960240,0.0011989,-0.6228179,-0.0960240,-0.0765454,-0.2282934
0.6950000,0.6950000,0.6950000,-0.0938772,0.0011814,-0.6158742,-0.0938772,-0.0748260,-0.2232917
0.6975000,0.6975000,0.6975000,-0.0917857,0.0011642,-0.6090337,-0.0917857,-0.0731512,-0.2184148
0.7000000,0.7000000,0.7000000,-0.0897480,0.0011474,-0.6022946,-0.0897480,-0.0715197,-0.2136595
0.7025000,0.7025000,0.7025000,-0.0877625,0.0011310,-0.5956549,-0.0877625,-0.0699302,-0.2090223
0.7050000,0.7050000,0.7050000,-0.0858277,0.0011150,-0.5891129,-0.0858277,-0.0683815,-0.2045002
0.7075000,0.7075000,0.7075000,-0.0839422,0.0010992,-0.5826668,-0.0839422,-0.0668725,-0.2000900
0.7100000,0.7100000,0.7100000,-0.0821046,0.0010839,-0.5763148,-0.0821046,-0.0654020,-0.1957887
0.7125000,0.7125000,0.7125000,-0.0803135,0.0010688,-0.5700551,-0.0803135,-0.0639689,-0.1915934
0.7150000,0.7150000,0.7150000,-0.0785676,0.0010540,-0.5638863,-0.0785676,-0.0625721,-0.1875011
0.7175000,0.7175000,0.7175000,-0.0768656,0.0010396,-0.5578065,-0.0768656,-0.0612106,-0.1835091
0.7200000,0.7200000,0.7200000,-0.0752063,0.0010254,-0.5518142,-0.0752063,-0.0598834,-0.1796148
0.7225000,0.7225000,0.7225000,-0.0735884,0.0010116,-0.5459079,-0.0735884,-0.0585894,-0.1758155
0.7250000,0.7250000,0.7250000,-0.0720109,0.0009980,-0.5400859,-0.0720109,-0.0573279,-0.1721085
0.7275000,0.7275000,0.7275000,-0.0704725,0.0009847,-0.5343468,-0.0704725,-0.0560978,-0.1684916
0.7300000,0.7300000,0.7300000,-0.0689722,0.0009716,-0.5286892,-0.0689722,-0.0548982,-0.1649621
0.7325000,0.7325000,0.7325000,-0.0675089,0.0009588,-0.5231115,-0.0675089,-0.0537283,-0.1615179
0.7350000,0.7350000,0.7350000,-0.0660816,0.0009463,-0.5176125,-0.0660816,-0.0525873,-0.1581566
0.7375000,0.7375000,0.7375000,-0.0646893,0.0009340,-0.5121906,-0.0646893,-0.0514744,-0.1548760
0.7400000,0.7400000,0.7400000,-0.0633310,0.0009219,-0.5068445,-0.0633310,-0.0503888,-0.1516739
0.7425000,0.7425000,0.7425000,-0.0620058,0.0009101,-0.5015730,-0.0620058,-0.0493297,-0.1485483
0.7450000,0.7450000,0.7450000,-0.0607128,0.0008985,-0.4963746,-0.0607128,-0.0482964,-0.1454971
0.7475000,0.7475000,0.7475000,-0.0594511,0.0008871,-0.4912483,-0.0594511,-0.0472881,-0.1425184
0.7500000,0.7500000,0.7500000,-0.0582198,0.0008759,-0.4861926,-0.0582198,-0.0463043,-0.1396102
0.7525000,0.7525000,0.7525000,-0.0570181,0.0008650,-0.4812065,-0.0570181,-0.0453442,-0.1367706
0.7550000,0.7550000,0.7550000,-0.0558452,0.0008542,-0.4762886,-0.0558452,-0.0444071,-0.1339980
0.7575000,0.7575000,0.7575000,-0.0547003,0.0008437,-0.4714379,-0.0547003,-0.0434925,-0.1312904
0.7600000,0.7600000,0.7600000,-0.0535827,0.0008333,-0.4666532,-0.0535827,-0.0425998,-0.1286462
0.7625000,0.7625000,0.7625000,-0.0524917,0.0008231,-0.4619333,-0.0524917,-0.0417282,-0.1260638
0.7650000,0.7650000,0.7650000,-0.0514264,0.0008131,-0.4572773,-0.0514264,-0.0408774,-0.1235414
0.7675000,0.7675000,0.7675000,-0.0503863,0.0008033,-0.4526839,-0.0503863,-0.0400467,-0.1210777
0.7700000,0.7700000,0.7700000,-0.0493706,0.0007937,-0.4481521,-0.0493706,-0.0392355,-0.1186709
0.7725000,0.7725000,0.7725000,-0.0483788,0.0007842,-0.4436810,-0.0483788,-0.0384434,-0.1163197
0.7750000,0.7750000,0.7750000,-0.0474101,0.0007749,-0.4392695,-0.0474101,-0.0376699,-0.1140225
0.7775000,0.7775000,0.7775000,-0.0464639,0.0007658,-0.4349165,-0.0464639,-0.0369144,-0.1117781
0.7800000,0.7800000,0.7800000,-0.0455397,0.0007568,-0.4306212,-0.0455397,-0.0361764,-0.1095850
0.7825000,0.7825000,0.7825000,-0.0446369,0.0007480,-0.4263826,-0.0446369,-0.0354556,-0.1074419
0.7850000,0.7850000,0.7850000,-0.0437549,0.0007393,-0.4221997,-0.0437549,-0.0347515,-0.1053476
0.7875000,0.7875000,0.7875000,-0.0428932,0.0007308,-0.4180717,-0.0428932,-0.0340635,-0.1033007
0.7900000,0.7900000,0.7900000,-0.0420513,0.0007224,-0.4139976,-0.0420513,-0.0333914,-0.1013001
0.7925000,0.7925000,0.7925000,-0.0412286,0.0007141,-0.4099765,-0.0412286,-0.0327346,-0.0993446
0.7950000,0.7950000,0.7950000,-0.0404246,0.0007060,-0.4060076,-0.0404246,-0.0320928,-0.0974330
0.7975000,0.7975000,0.7975000,-0.0396388,0.0006981,-0.4020901,-0.0396388,-0.0314657,-0.0955643
0.8000000,0.8000000,0.8000000,-0.0388709,0.0006902,-0.3982230,-0.0388709,-0.0308527,-0.0937373
0.8025000,0.8025000,0.8025000,-0.0381202,0.0006825,-0.3944057,-0.0381202,-0.0302536,-0.0919510
0.8050000,0.8050000,0.8050000,-0.0373865,0.0006749,-0.3906372,-0.0373865,-0.0296680,-0.0902044
0.8075000,0.8075000,0.8075000,-0.0366692,0.0006675,-0.3869169,-0.0366692,-0.0290955,-0.0884964
0.8100000,0.8100000,0.8100000,-0.0359679,0.0006601,-0.3832439,-0.0359679,-0.0285359,-0.0868262
0.8125000,0.8125000,0.8125000,-0.0352822,0.0006529,-0.3796176,-0.0352822,-0.0279887,-0.0851927
0.8150000,0.8150000,0.8150000,-0.0346118,0.0006458,-0.3760370,-0.0346118,-0.0274537,-0.0835951
0.8175000,0.8175000,0.8175000,-0.0339562,0.0006388,-0.3725016,-0.0339562,-0.0269306,-0.0820324
0.8200000,0.8200000,0.8200000,-0.0333150,0.0006319,-0.3690106,-0.0333150,-0.0264190,-0.0805037
0.8225000,0.8225000,0.8225000,-0.0326880,0.0006252,-0.3655634,-0.0326880,-0.0259187,-0.0790084
0.8250000,0.8250000,0.8250000,-0.0320747,0.0006185,-0.3621591,-0.0320747,-0.0254294,-0.0775454
0.8275000,0.8275000,0.8275000,-0.0314748,0.0006119,-0.3587973,-0.0314748,-0.0249508,-0.0761141
0.8300000,0.8300000,0.8300000,-0.0308880,0.0006054,-0.3554771,-0.0308880,-0.0244826,-0.0747137
0.8325000,0.8325000,0.8325000,-0.0303140,0.0005991,-0.3521980,-0.0303140,-0.0240247,-0.0733433
0.8350000,0.8350000,0.8350000,-0.0297524,0.0005928,-0.3489593,-0.0297524,-0.0235767,-0.0720023
0.8375000,0.8375000,0.8375000,-0.0292029,0.0005866,-0.3457604,-0.0292029,-0.0231383,-0.0706900
0.8400000,0.8400000,0.8400000,-0.0286652,0.0005806,-0.3426007,-0.0286652,-0.0227094,-0.0694056
0.8425000,0.8425000,0.8425000,-0.0281391,0.0005746,-0.3394796,-0.0281391,-0.0222898,-0.0681484
0.8450000,0.8450000,0.8450000,-0.0276242,0.0005687,-0.3363965,-0.0276242,-0.0218791,-0.0669179
0.8475000,0.8475000,0.8475000,-0.0271203,0.0005628,-0.3333508,-0.0271203,-0.0214772,-0.0657134
0.8500000,0.8500000,0.8500000,-0.0266271,0.0005571,-0.3303420,-0.0266271,-0.0210839,-0.0645343
0.8525000,0.8525000,0.8525000,-0.0261444,0.0005515,-0.3273694,-0.0261444,-0.0206989,-0.0633798
0.8550000,0.8550000,0.8550000,-0.0256719,0.0005459,-0.3244326,-0.0256719,-0.0203221,-0.0622496
0.8575000,0.8575000,0.8575000,-0.0252093,0.0005404,-0.3215310,-0.0252093,-0.0199532,-0.0611429
0.8600000,0.8600000,0.8600000,-0.0247565,0.0005350,-0.3186641,-0.0247565,-0.0195921,-0.0600592
0.8625000,0.8625000,0.8625000,-0.0243132,0.0005297,-0.3158313,-0.0243132,-0.0192386,-0.0589981
0.8650000,0.8650000,0.8650000,-0.0238791,0.0005244,-0.3130322,-0.0238791,-0.0188924,-0.0579588
0.8675000,0.8675000,0.8675000,-0.0234540,0.0005193,-0.3102662,-0.0234540,-0.0185535,-0.0569410
0.8700000,0.8700000,0.8700000,-0.0230378,0.0005142,-0.3075329,-0.0230378,-0.0182216,-0.0559441
0.8725000,0.8725000,0.8725000,-0.0226302,0.0005091,-0.3048318,-0.0226302,-0.0178966,-0.0549677
0.8750000,0.8750000,0.8750000,-0.0222309,0.0005042,-0.3021624,-0.0222309,-0.0175784,-0.0540112
0.8775000,0.8775000,0.8775000,-0.0218400,0.0004993,-0.2995242,-0.0218400,-0.0172667,-0.0530742
0.8800000,0.8800000,0.8800000,-0.0214570,0.0004945,-0.2969168,-0.0214570,-0.0169613,-0.0521563
0.8825000,0.8825000,0.8825000,-0.0210818,0.0004897,-0.2943397,-0.0210818,-0.0166623,-0.0512569
0.8850000,0.8850000,0.8850000,-0.0207144,0.0004850,-0.2917926,-0.0207144,-0.0163694,-0.0503758
0.8875000,0.8875000,0.8875000,-0.0203543,0.0004804,-0.2892748,-0.0203543,-0.0160824,-0.0495124
0.8900000,0.8900000,0.8900000,-0.0200016,0.0004758,-0.2867861,-0.0200016,-0.0158012,-0.0486663
0.8925000,0.8925000,0.8925000,-0.0196560,0.0004713,-0.2843260,-0.0196560,-0.0155258,-0.0478371
0.8950000,0.8950000,0.8950000,-0.0193174,0.0004669,-0.2818941,-0.0193174,-0.0152559,-0.0470246
0.8975000,0.8975000,0.8975000,-0.0189856,0.0004625,-0.2794900,-0.0189856,-0.0149915,-0.0462282
0.9000000,0.9000000,0.9000000,-0.0186604,0.0004582,-0.2771133,-0.0186604,-0.0147323,-0.0454476
0.9025000,0.9025000,0.9025000,-0.0183418,0.0004539,-0.2747636,-0.0183418,-0.0144784,-0.0446825
0.9050000,0.9050000,0.9050000,-0.0180294,0.0004497,-0.2724406,-0.0180294,-0.0142295,-0.0439325
0.9075000,0.9075000,0.9075000,-0.0177233,0.0004455,-0.2701437,-0.0177233,-0.0139856,-0.0431972
0.9100000,0.9100000,0.9100000,-0.0174233,0.0004414,-0.2678728,-0.0174233,-0.0137465,-0.0424764
0.9125000,0.9125000,0.9125000,-0.0171292,0.0004374,-0.2656273,-0.0171292,-0.0135121,-0.0417697
0.9150000,0.9150000,0.9150000,-0.0168408,0.0004334,-0.2634070,-0.0168408,-0.0132824,-0.0410768
0.9175000,0.9175000,0.9175000,-0.0165582,0.0004294,-0.2612115,-0.0165582,-0.0130572,-0.0403974
0.9200000,0.9200000,0.9200000,-0.0162810,0.0004255,-0.2590405,-0.0162810,-0.0128364,-0.0397312
0.9225000,0.9225000,0.9225000,-0.0160093,0.0004217,-0.2568935,-0.0160093,-0.0126200,-0.0390779
0.9250000,0.9250000,0.9250000,-0.0157429,0.0004179,-0.2547704,-0.0157429,-0.0124077,-0.0384372
0.9275000,0.9275000,0.9275000,-0.0154816,0.0004142,-0.2526707,-0.0154816,-0.0121996,-0.0378088
0.9300000,0.9300000,0.9300000,-0.0152254,0.0004105,-0.2505940,-0.0152254,-0.0119955,-0.0371924
0.9325000,0.9325000,0.9325000,-0.0149742,0.0004068,-0.2485403,-0.0149742,-0.0117954,-0.0365879
0.9350000,0.9350000,0.9350000,-0.0147278,0.0004032,-0.2465089,-0.0147278,-0.0115992,-0.0359949
0.9375000,0.9375000,0.9375000,-0.0144861,0.0003996,-0.2444998,-0.0144861,-0.0114067,-0.0354132
0.9400000,0.9400000,0.9400000,-0.0142491,0.0003961,-0.2425126,-0.0142491,-0.0112179,-0.0348426
0.9425000,0.9425000,0.9425000,-0.0140165,0.0003927,-0.2405469,-0.0140165,-0.0110328,-0.0342827
0.9450000,0.9450000,0.9450000,-0.0137885,0.0003892,-0.2386025,-0.0137885,-0.0108511,-0.0337334
0.9475000,0.9475000,0.9475000,-0.0135647,0.0003858,-0.2366791,-0.0135647,-0.0106730,-0.0331945
0.9500000,0.9500000,0.9500000,-0.0133452,0.0003825,-0.2347764,-0.0133452,-0.0104982,-0.0326656
0.9525000,0.9525000,0.9525000,-0.0131298,0.0003792,-0.2328942,-0.0131298,-0.0103267,-0.0321467
0.9550000,0.9550000,0.9550000,-0.0129185,0.0003759,-0.2310321,-0.0129185,-0.0101585,-0.0316374
0.9575000,0.9575000,0.9575000,-0.0127111,0.0003727,-0.2291899,-0.0127111,-0.0099934,-0.0311377
0.9600000,0.9600000,0.9600000,-0.0125077,0.0003695,-0.2273674,-0.0125077,-0.0098314,-0.0306472
0.9625000,0.9625000,0.9625000,-0.0123080,0.0003663,-0.2255642,-0.0123080,-0.0096725,-0.0301658
0.9650000,0.9650000,0.9650000,-0.0121120,0.0003632,-0.2237801,-0.0121120,-0.0095165,-0.0296933
0.9675000,0.9675000,0.9675000,-0.0119197,0.0003602,-0.2220148,-0.0119197,-0.0093635,-0.0292294
0.9700000,0.9700000,0.9700000,-0.0117310,0.0003571,-0.2202682,-0.0117310,-0.0092133,-0.0287742
0.9725000,0.9725000,0.9725000,-0.0115458,0.0003541,-0.2185399,-0.0115458,-0.0090658,-0.0283272
0.9750000,0.9750000,0.9750000,-0.0113639,0.0003511,-0.2168297,-0.0113639,-0.0089211,-0.0278884
0.9775000,0.9775000,0.9775000,-0.0111854,0.0003482,-0.2151374,-0.0111854,-0.0087791,-0.0274576
0.9800000,0.9800000,0.9800000,-0.0110102,0.0003453,-0.2134628,-0.0110102,-0.0086397,-0.0270346
0.9825000,0.9825000,0.9825000,-0.0108382,0.0003424,-0.2118055,-0.0108382,-0.0085028,-0.0266193
0.9850000,0.9850000,0.9850000,-0.0106693,0.0003396,-0.2101655,-0.0106693,-0.0083685,-0.0262115
0.9875000,0.9875000,0.9875000,-0.0105035,0.0003368,-0.2085424,-0.0105035,-0.0082365,-0.0258111
0.9900000,0.9900000,0.9900000,-0.0103407,0.0003340,-0.2069360,-0.0103407,-0.0081070,-0.0254178
0.9925000,0.9925000,0.9925000,-0.0101808,0.0003313,-0.2053462,-0.0101808,-0.0079799,-0.0250316
0.9950000,0.9950000,0.9950000,-0.0100239,0.0003286,-0.2037727,-0.0100239,-0.0078550,-0.0246523
0.9975000,0.9975000,0.9975000,-0.0098697,0.0003259,-0.2022153,-0.0098697,-0.0077324,-0.0242798
1.0000000,1.0000000,1.0000000,-0.0097183,0.0003233,-0.2006738,-0.0097183,-0.0076120,-0.0239139
1.0025000,1.0025000,1.0025000,-0.0095697,0.0003207,-0.1991480,-0.0095697,-0.0074938,-0.0235544
1.0050000,1.0050000,1.0050000,-0.0094237,0.0003181,-0.1976377,-0.0094237,-0.0073777,-0.0232014
1.0075000,1.0075000,1.0075000,-0.0092802,0.0003155,-0.1961427,-0.0092802,-0.0072637,-0.0228545
1.0100000,1.0100000,1.0100000,-0.0091394,0.0003130,-0.1946628,-0.0091394,-0.0071517,-0.0225138
1.0125000,1.0125000,1.0125000,-0.0090010,0.0003105,-0.1931978,-0.0090010,-0.0070417,-0.0221791
1.0150000,1.0150000,1.0150000,-0.0088651,0.0003080,-0.1917475,-0.0088651,-0.0069336,-0.0218502
1.0175000,1.0175000,1.0175000,-0.0087316,0.0003056,-0.1903118,-0.0087316,-0.0068275,-0.0215270
1.0200000,1.0200000,1.0200000,-0.0086004,0.0003032,-0.1888904,-0.0086004,-0.0067232,-0.0212095
1.0225000,1.0225000,1.0225000,-0.0084715,0.0003008,-0.1874832,-0.0084715,-0.0066208,-0.0208975
1.0250000,1.0250000,1.0250000,-0.0083449,0.0002984,-0.1860901,-0.0083449,-0.0065202,-0.0205909
1.0275000,1.0275000,1.0275000,-0.0082205,0.0002961,-0.1847107,-0.0082205,-0.0064213,-0.0202896
1.0300000,1.0300000,1.0300000,-0.0080982,0.0002937,-0.1833450,-0.0080982,-0.0063241,-0.0199935
1.0325000,1.0325000,1.0325000,-0.0079781,0.0002914,-0.1819928,-0.0079781,-0.0062287,-0.0197025
1.0350000,1.0350000,1.0350000,-0.0078600,0.0002892,-0.1806539,-0.0078600,-0.0061349,-0.0194165
1.0375000,1.0375000,1.0375000,-0.0077440,0.0002869,-0.1793281,-0.0077440,-0.0060427,-0.0191354
1.0400000,1.0400000,1.0400000,-0.0076300,0.0002847,-0.1780154,-0.0076300,-0.0059522,-0.0188590
1.0425000,1.0425000,1.0425000,-0.0075180,0.0002825,-0.1767155,-0.0075180,-0.0058632,-0.0185874
1.0450000,1.0450000,1.0450000,-0.0074078,0.0002804,-0.1754282,-0.0074078,-0.0057757,-0.0183204
1.0475000,1.0475000,1.0475000,-0.0072996,0.0002782,-0.1741535,-0.0072996,-0.0056897,-0.0180579
1.0500000,1.0500000,1.0500000,-0.0071932,0.0002761,-0.1728912,-0.0071932,-0.0056052,-0.0177998
1.0525000,1.0525000,1.0525000,-0.0070886,0.0002740,-0.1716410,-0.0070886,-0.0055222,-0.0175461
1.0550000,1.0550000,1.0550000,-0.0069858,0.0002719,-0.1704030,-0.0069858,-0.0054406,-0.0172967
1.0575000,1.0575000,1.0575000,-0.0068847,0.0002698,-0.1691768,-0.0068847,-0.0053603,-0.0170514
1.0600000,1.0600000,1.0600000,-0.0067853,0.0002678,-0.1679625,-0.0067853,-0.0052814,-0.0168102
1.0625000,1.0625000,1.0625000,-0.0066876,0.0002658,-0.1667598,-0.0066876,-0.0052039,-0.0165731
1.0650000,1.0650000,1.0650000,-0.0065916,0.0002638,-0.1655686,-0.0065916,-0.0051277,-0.0163399
1.0675000,1.0675000,1.0675000,-0.0064972,0.0002618,-0.1643887,-0.0064972,-0.0050527,-0.0161105
1.0700000,1.0700000,1.0700000,-0.0064043,0.0002599,-0.1632201,-0.0064043,-0.0049790,-0.0158850
1.0725000,1.0725000,1.0725000,-0.0063130,0.0002579,-0.1620626,-0.0063130,-0.0049066,-0.0156632
1.0750000,1.0750000,1.0750000,-0.0062232,0.0002560,-0.1609160,-0.0062232,-0.0048353,-0.0154450
1.0775000,1.0775000,1.0775000,-0.0061349,0.0002541,-0.1597803,-0.0061349,-0.0047653,-0.0152305
1.0800000,1.0800000,1.0800000,-0.0060480,0.0002523,-0.1586552,-0.0060480,-0.0046964,-0.0150194
1.0825000,1.0825000,1.0825000,-0.0059626,0.0002504,-0.1575408,-0.0059626,-0.0046287,-0.0148118
1.0850000,1.0850000,1.0850000,-0.0058787,0.0002486,-0.1564368,-0.0058787,-0.0045620,-0.0146076
1.0875000,1.0875000,1.0875000,-0.0057960,0.0002467,-0.1553431,-0.0057960,-0.0044965,-0.0144067
1.0900000,1.0900000,1.0900000,-0.0057148,0.0002449,-0.1542597,-0.0057148,-0.0044321,-0.0142090
1.0925000,1.0925000,1.0925000,-0.0056348,0.0002432,-0.1531863,-0.0056348,-0.0043687,-0.0140146
1.0950000,1.0950000,1.0950000,-0.0055562,0.0002414,-0.1521229,-0.0055562,-0.0043064,-0.0138233
1.0975000,1.0975000,1.0975000,-0.0054789,0.0002396,-0.1510694,-0.0054789,-0.0042451,-0.0136351
1.1000000,1.1000000,1.1000000,-0.0054028,0.0002379,-0.1500256,-0.0054028,-0.0041848,-0.0134499
1.1025000,1.1025000,1.1025000,-0.0053279,0.0002362,-0.1489914,-0.0053279,-0.0041254,-0.0132677
1.1050000,1.1050000,1.1050000,-0.0052543,0.0002345,-0.1479667,-0.0052543,-0.0040671,-0.0130884
1.1075000,1.1075000,1.1075000,-0.0051818,0.0002328,-0.1469515,-0.0051818,-0.0040097,-0.0129119
1.1100000,1.1100000,1.1100000,-0.0051106,0.0002312,-0.1459455,-0.0051106,-0.0039532,-0.0127383
1.1125000,1.1125000,1.1125000,-0.0050404,0.0002295,-0.1449488,-0.0050404,-0.0038976,-0.0125674
1.1150000,1.1150000,1.1150000,-0.0049714,0.0002279,-0.1439611,-0.0049714,-0.0038429,-0.0123992
1.1175000,1.1175000,1.1175000,-0.0049035,0.0002263,-0.1429825,-0.0049035,-0.0037891,-0.0122337
1.1200000,1.1200000,1.1200000,-0.0048366,0.0002247,-0.1420127,-0.0048366,-0.0037362,-0.0120708
1.1225000,1.1225000,1.1225000,-0.0047709,0.0002231,-0.1410517,-0.0047709,-0.0036841,-0.0119105
1.1250000,1.1250000,1.1250000,-0.0047061,0.0002215,-0.1400993,-0.0047061,-0.0036329,-0.0117527
1.1275000,1.1275000,1.1275000,-0.0046424,0.0002200,-0.1391556,-0.0046424,-0.0035824,-0.0115973
1.1300000,1.1300000,1.1300000,-0.0045798,0.0002184,-0.1382203,-0.0045798,-0.0035328,-0.0114444
1.1325000,1.1325000,1.1325000,-0.0045180,0.0002169,-0.1372935,-0.0045180,-0.0034840,-0.0112938
1.1350000,1.1350000,1.1350000,-0.0044573,0.0002154,-0.1363749,-0.0044573,-0.0034359,-0.0111456
1.1375000,1.1375000,1.1375000,-0.0043975,0.0002139,-0.1354645,-0.0043975,-0.0033886,-0.0109997
1.1400000,1.1400000,1.1400000,-0.0043387,0.0002124,-0.1345623,-0.0043387,-0.0033420,-0.0108561
1.1425000,1.1425000,1.1425000,-0.0042808,0.0002109,-0.1336681,-0.0042808,-0.0032962,-0.0107146
1.1450000,1.1450000,1.1450000,-0.0042237,0.0002095,-0.1327818,-0.0042237,-0.0032511,-0.0105754
1.1475000,1.1475000,1.1475000,-0.0041676,0.0002081,-0.1319033,-0.0041676,-0.0032067,-0.0104383
1.1500000,1.1500000,1.1500000,-0.0041123,0.0002066,-0.1310326,-0.0041123,-0.0031630,-0.0103033
1.1525000,1.1525000,1.1525000,-0.0040579,0.0002052,-0.1301696,-0.0040579,-0.0031200,-0.0101703
1.1550000,1.1550000,1.1550000,-0.0040043,0.0002038,-0.1293142,-0.0040043,-0.0030776,-0.0100394
1.1575000,1.1575000,1.1575000,-0.0039516,0.0002024,-0.1284663,-0.0039516,-0.0030359,-0.0099105
1.1600000,1.1600000,1.1600000,-0.0038997,0.0002011,-0.1276258,-0.0038997,-0.0029949,-0.0097835
1.1625000,1.1625000,1.1625000,-0.0038485,0.0001997,-0.1267926,-0.0038485,-0.0029544,-0.0096585
1.1650000,1.1650000,1.1650000,-0.0037982,0.0001983,-0.1259667,-0.0037982,-0.0029146,-0.0095353
1.1675000,1.1675000,1.1675000,-0.0037486,0.0001970,-0.1251480,-0.0037486,-0.0028755,-0.0094140
1.1700000,1.1700000,1.1700000,-0.0036998,0.0001957,-0.1243364,-0.0036998,-0.0028369,-0.0092945
1.1725000,1.1725000,1.1725000,-0.0036517,0.0001944,-0.1235318,-0.0036517,-0.0027989,-0.0091769
1.1750000,1.1750000,1.1750000,-0.0036043,0.0001931,-0.1227341,-0.0036043,-0.0027615,-0.0090610
1.1775000,1.1775000,1.1775000,-0.0035577,0.0001918,-0.1219434,-0.0035577,-0.0027247,-0.0089468
1.1800000,1.1800000,1.1800000,-0.0035117,0.0001905,-0.1211594,-0.0035117,-0.0026884,-0.0088343
1.1825000,1.1825000,1.1825000,-0.0034665,0.0001892,-0.1203822,-0.0034665,-0.0026527,-0.0087235
1.1850000,1.1850000,1.1850000,-0.0034219,0.0001880,-0.1196116,-0.0034219,-0.0026175,-0.0086143
1.1875000,1.1875000,1.1875000,-0.0033780,0.0001867,-0.1188476,-0.0033780,-0.0025828,-0.0085068
1.1900000,1.1900000,1.1900000,-0.0033348,0.0001855,-0.1180901,-0.0033348,-0.0025487,-0.0084008
1.1925000,1.1925000,1.1925000,-0.0032922,0.0001843,-0.1173391,-0.0032922,-0.0025151,-0.0082964
1.1950000,1.1950000,1.1950000,-0.0032502,0.0001831,-0.1165944,-0.0032502,-0.0024820,-0.0081936
1.1975000,1.1975000,1.1975000,-0.0032089,0.0001819,-0.1158560,-0.0032089,-0.0024494,-0.0080922
1.2000000,1.2000000,1.2000000,-0.0031682,0.0001807,-0.1151239,-0.0031682,-0.0024173,-0.0079924
1.2025000,1.2025000,1.2025000,-0.0031281,0.0001795,-0.1143980,-0.0031281,-0.0023856,-0.0078940
1.2050000,1.2050000,1.2050000,-0.0030886,0.0001784,-0.1136781,-0.0030886,-0.0023545,-0.0077970
1.2075000,1.2075000,1.2075000,-0.0030496,0.0001772,-0.1129644,-0.0030496,-0.0023238,-0.0077014
1.2100000,1.2100000,1.2100000,-0.0030112,0.0001761,-0.1122566,-0.0030112,-0.0022935,-0.0076073
1.2125000,1.2125000,1.2125000,-0.0029734,0.0001749,-0.1115547,-0.0029734,-0.0022637,-0.0075145
1.2150000,1.2150000,1.2150000,-0.0029362,0.0001738,-0.1108586,-0.0029362,-0.0022344,-0.0074230
1.2175000,1.2175000,1.2175000,-0.0028995,0.0001727,-0.1101684,-0.0028995,-0.0022055,-0.0073329
1.2200000,1.2200000,1.2200000,-0.0028633,0.0001716,-0.1094839,-0.0028633,-0.0021770,-0.0072440
1.2225000,1.2225000,1.2225000,-0.0028277,0.0001705,-0.1088051,-0.0028277,-0.0021489,-0.0071564
1.2250000,1.2250000,1.2250000,-0.0027925,0.0001694,-0.1081319,-0.0027925,-0.0021212,-0.0070701
1.2275000,1.2275000,1.2275000,-0.0027579,0.0001683,-0.1074643,-0.0027579,-0.0020940,-0.0069850
1.2300000,1.2300000,1.2300000,-0.0027238,0.0001672,-0.1068021,-0.0027238,-0.0020671,-0.0069012
1.2325000,1.2325000,1.2325000,-0.0026902,0.0001662,-0.1061454,-0.0026902,-0.0020407,-0.0068185
1.2350000,1.2350000,1.2350000,-0.0026571,0.0001651,-0.1054941,-0.0026571,-0.0020146,-0.0067370
1.2375000,1.2375000,1.2375000,-0.0026244,0.0001641,-0.1048481,-0.0026244,-0.0019889,-0.0066566
1.2400000,1.2400000,1.2400000,-0.0025922,0.0001631,-0.1042074,-0.0025922,-0.0019635,-0.0065774
1.2425000,1.2425000,1.2425000,-0.0025605,0.0001620,-0.1035720,-0.0025605,-0.0019386,-0.0064993
1.2450000,1.2450000,1.2450000,-0.0025292,0.0001610,-0.1029417,-0.0025292,-0.0019140,-0.0064223
1.2475000,1.2475000,1.2475000,-0.0024984,0.0001600,-0.1023165,-0.0024984,-0.0018897,-0.0063464
1.2500000,1.2500000,1.2500000,-0.0024680,0.0001590,-0.1016964,-0.0024680,-0.0018658,-0.0062716
1.2525000,1.2525000,1.2525000,-0.0024380,0.0001580,-0.1010813,-0.0024380,-0.0018423,-0.0061978
1.2550000,1.2550000,1.2550000,-0.0024085,0.0001570,-0.1004712,-0.0024085,-0.0018191,-0.0061250
1.2575000,1.2575000,1.2575000,-0.0023793,0.0001561,-0.0998659,-0.0023793,-0.0017962,-0.0060532
1.2600000,1.2600000,1.2600000,-0.0023506,0.0001551,-0.0992656,-0.0023506,-0.0017736,-0.0059825
1.2625000,1.2625000,1.2625000,-0.0023223,0.0001541,-0.0986701,-0.0023223,-0.0017514,-0.0059127
1.2650000,1.2650000,1.2650000,-0.0022944,0.0001532,-0.0980793,-0.0022944,-0.0017295,-0.0058439
1.2675000,1.2675000,1.2675000,-0.0022669,0.0001523,-0.0974932,-0.0022669,-0.0017079,-0.0057760
1.2700000,1.2700000,1.2700000,-0.0022398,0.0001513,-0.0969119,-0.0022398,-0.0016866,-0.0057091
1.2725000,1.2725000,1.2725000,-0.0022130,0.0001504,-0.0963351,-0.0022130,-0.0016656,-0.0056431
1.2750000,1.2750000,1.2750000,-0.0021866,0.0001495,-0.0957630,-0.0021866,-0.0016448,-0.0055780
1.2775000,1.2775000,1.2775000,-0.0021606,0.0001486,-0.0951953,-0.0021606,-0.0016244,-0.0055138
1.2800000,1.2800000,1.2800000,-0.0021350,0.0001477,-0.0946322,-0.0021350,-0.0016043,-0.0054505
1.2825000,1.2825000,1.2825000,-0.0021097,0.0001468,-0.0940735,-0.0021097,-0.0015845,-0.0053880
1.2850000,1.2850000,1.2850000,-0.0020847,0.0001459,-0.0935192,-0.0020847,-0.0015649,-0.0053264
1.2875000,1.2875000,1.2875000,-0.0020601,0.0001450,-0.0929693,-0.0020601,-0.0015456,-0.0052656
1.2900000,1.2900000,1.2900000,-0.0020359,0.0001441,-0.0924236,-0.0020359,-0.0015266,-0.0052056
1.2925000,1.2925000,1.2925000,-0.0020119,0.0001433,-0.0918823,-0.0020119,-0.0015078,-0.0051465
1.2950000,1.2950000,1.2950000,-0.0019883,0.0001424,-0.0913452,-0.0019883,-0.0014893,-0.0050881
1.2975000,1.2975000,1.2975000,-0.0019651,0.0001415,-0.0908122,-0.0019651,-0.0014711,-0.0050306
1.3000000,1.3000000,1.3000000,-0.0019421,0.0001407,-0.0902835,-0.0019421,-0.0014531,-0.0049738
1.3025000,1.3025000,1.3025000,-0.0019195,0.0001399,-0.0897588,-0.0019195,-0.0014354,-0.0049178
1.3050000,1.3050000,1.3050000,-0.0018971,0.0001390,-0.0892382,-0.0018971,-0.0014179,-0.0048625
1.3075000,1.3075000,1.3075000,-0.0018751,0.0001382,-0.0887216,-0.0018751,-0.0014006,-0.0048079
1.3100000,1.3100000,1.3100000,-0.0018533,0.0001374,-0.0882090,-0.0018533,-0.0013836,-0.0047541
1.3125000,1.3125000,1.3125000,-0.0018319,0.0001366,-0.0877004,-0.0018319,-0.0013668,-0.0047010
1.3150000,1.3150000,1.3150000,-0.0018108,0.0001358,-0.0871957,-0.0018108,-0.0013503,-0.0046486
1.3175000,1.3175000,1.3175000,-0.0017899,0.0001350,-0.0866949,-0.0017899,-0.0013340,-0.0045969
1.3200000,1.3200000,1.3200000,-0.0017693,0.0001342,-0.0861979,-0.0017693,-0.0013179,-0.0045459
1.3225000,1.3225000,1.3225000,-0.0017490,0.0001334,-0.0857047,-0.0017490,-0.0013020,-0.0044956
1.3250000,1.3250000,1.3250000,-0.0017290,0.0001326,-0.0852152,-0.0017290,-0.0012863,-0.0044459
1.3275000,1.3275000,1.3275000,-0.0017092,0.0001318,-0.0847295,-0.0017092,-0.0012709,-0.0043969
1.3300000,1.3300000,1.3300000,-0.0016897,0.0001311,-0.0842475,-0.0016897,-0.0012556,-0.0043485
1.3325000,1.3325000,1.3325000,-0.0016704,0.0001303,-0.0837691,-0.0016704,-0.0012406,-0.0043007
1.3350000,1.3350000,1.3350000,-0.0016514,0.0001295,-0.0832944,-0.0016514,-0.0012257,-0.0042536
1.3375000,1.3375000,1.3375000,-0.0016327,0.0001288,-0.0828233,-0.0016327,-0.0012111,-0.0042071
1.3400000,1.3400000,1.3400000,-0.0016142,0.0001281,-0.0823557,-0.0016142,-0.0011967,-0.0041612
1.3425000,1.3425000,1.3425000,-0.0015960,0.0001273,-0.0818916,-0.0015960,-0.0011824,-0.0041159
1.3450000,1.3450000,1.3450000,-0.0015780,0.0001266,-0.0814311,-0.0015780,-0.0011684,-0.0040712
1.3475000,1.3475000,1.3475000,-0.0015602,0.0001259,-0.0809739,-0.0015602,-0.0011545,-0.0040270
1.3500000,1.3500000,1.3500000,-0.0015426,0.0001251,-0.0805202,-0.0015426,-0.0011408,-0.0039835
1.3525000,1.3525000,1.3525000,-0.0015253,0.0001244,-0.0800699,-0.0015253,-0.0011273,-0.0039404
1.3550000,1.3550000,1.3550000,-0.0015083,0.0001237,-0.0796230,-0.0015083,-0.0011140,-0.0038980
1.3575000,1.3575000,1.3575000,-0.0014914,0.0001230,-0.0791794,-0.0014914,-0.0011009,-0.0038561
1.3600000,1.3600000,1.3600000,-0.0014748,0.0001223,-0.0787391,-0.0014748,-0.0010879,-0.0038147
1.3625000,1.3625000,1.3625000,-0.0014584,0.0001216,-0.0783020,-0.0014584,-0.0010751,-0.0037738
1.3650000,1.3650000,1.3650000,-0.0014421,0.0001209,-0.0778682,-0.0014421,-0.0010625,-0.0037335
1.3675000,1.3675000,1.3675000,-0.0014262,0.0001202,-0.0774376,-0.0014262,-0.0010500,-0.0036937
1.3700000,1.3700000,1.3700000,-0.0014104,0.0001196,-0.0770102,-0.0014104,-0.0010377,-0.0036544
1.3725000,1.3725000,1.3725000,-0.0013948,0.0001189,-0.0765859,-0.0013948,-0.0010256,-0.0036156
1.3750000,1.3750000,1.3750000,-0.0013794,0.0001182,-0.0761647,-0.0013794,-0.0010136,-0.0035772
1.3775000,1.3775000,1.3775000,-0.0013642,0.0001176,-0.0757467,-0.0013642,-0.0010018,-0.0035394
1.3800000,1.3800000,1.3800000,-0.0013492,0.0001169,-0.0753316,-0.0013492,-0.0009901,-0.0035020
1.3825000,1.3825000,1.3825000,-0.0013344,0.0001162,-0.0749197,-0.0013344,-0.0009786,-0.0034652
1.3850000,1.3850000,1.3850000,-0.0013198,0.0001156,-0.0745107,-0.0013198,-0.0009673,-0.0034287
1.3875000,1.3875000,1.3875000,-0.0013054,0.0001150,-0.0741047,-0.0013054,-0.0009561,-0.0033928
1.3900000,1.3900000,1.3900000,-0.0012912,0.0001143,-0.0737017,-0.0012912,-0.0009450,-0.0033572
1.3925000,1.3925000,1.3925000,-0.0012771,0.0001137,-0.0733015,-0.0012771,-0.0009341,-0.0033222
1.3950000,1.3950000,1.3950000,-0.0012632,0.0001130,-0.0729043,-0.0012632,-0.0009233,-0.0032875
1.3975000,1.3975000,1.3975000,-0.0012495,0.0001124,-0.0725100,-0.0012495,-0.0009126,-0.0032533
1.4000000,1.4000000,1.4000000,-0.0012360,0.0001118,-0.0721185,-0.0012360,-0.0009021,-0.0032195
1.4025000,1.4025000,1.4025000,-0.0012226,0.0001112,-0.0717298,-0.0012226,-0.0008918,-0.0031862
1.4050000,1.4050000,1.4050000,-0.0012094,0.0001106,-0.0713439,-0.0012094,-0.0008815,-0.0031532
1.4075000,1.4075000,1.4075000,-0.0011964,0.0001100,-0.0709608,-0.0011964,-0.0008714,-0.0031207
1.4100000,1.4100000,1.4100000,-0.0011836,0.0001094,-0.0705804,-0.0011836,-0.0008615,-0.0030885
1.4125000,1.4125000,1.4125000,-0.0011709,0.0001088,-0.0702028,-0.0011709,-0.0008516,-0.0030568
1.4150000,1.4150000,1.4150000,-0.0011583,0.0001082,-0.0698278,-0.0011583,-0.0008419,-0.0030254
1.4175000,1.4175000,1.4175000,-0.0011459,0.0001076,-0.0694555,-0.0011459,-0.0008323,-0.0029944
1.4200000,1.4200000,1.4200000,-0.0011337,0.0001070,-0.0690859,-0.0011337,-0.0008228,-0.0029638
1.4225000,1.4225000,1.4225000,-0.0011216,0.0001064,-0.0687189,-0.0011216,-0.0008135,-0.0029336
1.4250000,1.4250000,1.4250000,-0.0011097,0.0001059,-0.0683545,-0.0011097,-0.0008042,-0.0029037
1.4275000,1.4275000,1.4275000,-0.0010979,0.0001053,-0.0679926,-0.0010979,-0.0007951,-0.0028742
1.4300000,1.4300000,1.4300000,-0.0010863,0.0001047,-0.0676333,-0.0010863,-0.0007861,-0.0028451
1.4325000,1.4325000,1.4325000,-0.0010748,0.0001042,-0.0672766,-0.0010748,-0.0007772,-0.0028163
1.4350000,1.4350000,1.4350000,-0.0010635,0.0001036,-0.0669224,-0.0010635,-0.0007684,-0.0027879
1.4375000,1.4375000,1.4375000,-0.0010522,0.0001030,-0.0665706,-0.0010522,-0.0007598,-0.0027598
1.4400000,1.4400000,1.4400000,-0.0010412,0.0001025,-0.0662213,-0.0010412,-0.0007512,-0.0027320
1.4425000,1.4425000,1.4425000,-0.0010302,0.0001019,-0.0658745,-0.0010302,-0.0007428,-0.0027046
1.4450000,1.4450000,1.4450000,-0.0010194,0.0001014,-0.0655301,-0.0010194,-0.0007344,-0.0026775
1.4475000,1.4475000,1.4475000,-0.0010088,0.0001009,-0.0651881,-0.0010088,-0.0007262,-0.0026507
1.4500000,1.4500000,1.4500000,-0.0009982,0.0001003,-0.0648484,-0.0009982,-0.0007180,-0.0026243
1.4525000,1.4525000,1.4525000,-0.0009878,0.0000998,-0.0645112,-0.0009878,-0.0007100,-0.0025981
1.4550000,1.4550000,1.4550000,-0.0009775,0.0000993,-0.0641762,-0.0009775,-0.0007021,-0.0025723
1.4575000,1.4575000,1.4575000,-0.0009674,0.0000987,-0.0638436,-0.0009674,-0.0006942,-0.0025468
1.4600000,1.4600000,1.4600000,-0.0009574,0.0000982,-0.0635133,-0.0009574,-0.0006865,-0.0025216
1.4625000,1.4625000,1.4625000,-0.0009474,0.0000977,-0.0631853,-0.0009474,-0.0006788,-0.0024967
1.4650000,1.4650000,1.4650000,-0.0009377,0.0000972,-0.0628595,-0.0009377,-0.0006713,-0.0024720
1.4675000,1.4675000,1.4675000,-0.0009280,0.0000967,-0.0625360,-0.0009280,-0.0006638,-0.0024477
1.4700000,1.4700000,1.4700000,-0.0009184,0.0000962,-0.0622147,-0.0009184,-0.0006565,-0.0024237
1.4725000,1.4725000,1.4725000,-0.0009090,0.0000957,-0.0618956,-0.0009090,-0.0006492,-0.0023999
1.4750000,1.4750000,1.4750000,-0.0008996,0.0000952,-0.0615786,-0.0008996,-0.0006420,-0.0023764
1.4775000,1.4775000,1.4775000,-0.0008904,0.0000947,-0.0612639,-0.0008904,-0.0006349,-0.0023532
1.4800000,1.4800000,1.4800000,-0.0008813,0.0000942,-0.0609513,-0.0008813,-0.0006279,-0.0023303
1.4825000,1.4825000,1.4825000,-0.0008723,0.0000937,-0.0606408,-0.0008723,-0.0006210,-0.0023076
1.4850000,1.4850000,1.4850000,-0.0008634,0.0000932,-0.0603324,-0.0008634,-0.0006142,-0.0022852
1.4875000,1.4875000,1.4875000,-0.0008546,0.0000927,-0.0600261,-0.0008546,-0.0006074,-0.0022630
1.4900000,1.4900000,1.4900000,-0.0008460,0.0000923,-0.0597219,-0.0008460,-0.0006007,-0.0022411
1.4925000,1.4925000,1.4925000,-0.0008374,0.0000918,-0.0594197,-0.0008374,-0.0005941,-0.0022195
1.4950000,1.4950000,1.4950000,-0.0008289,0.0000913,-0.0591196,-0.0008289,-0.0005876,-0.0021981
1.4975000,1.4975000,1.4975000,-0.0008205,0.0000908,-0.0588215,-0.0008205,-0.0005812,-0.0021770
1.5000000,1.5000000,1.5000000,-0.0008122,0.0000904,-0.0585254,-0.0008122,-0.0005748,-0.0021561
1.5025000,1.5025000,1.5025000,-0.0008041,0.0000899,-0.0582313,-0.0008041,-0.0005686,-0.0021354
1.5050000,1.5050000,1.5050000,-0.0007960,0.0000895,-0.0579392,-0.0007960,-0.0005623,-0.0021150
1.5075000,1.5075000,1.5075000,-0.0007880,0.0000890,-0.0576490,-0.0007880,-0.0005562,-0.0020948
1.5100000,1.5100000,1.5100000,-0.0007801,0.0000885,-0.0573608,-0.0007801,-0.0005502,-0.0020749
1.5125000,1.5125000,1.5125000,-0.0007723,0.0000881,-0.0570745,-0.0007723,-0.0005442,-0.0020551
1.5150000,1.5150000,1.5150000,-0.0007646,0.0000876,-0.0567901,-0.0007646,-0.0005383,-0.0020356
1.5175000,1.5175000,1.5175000,-0.0007570,0.0000872,-0.0565076,-0.0007570,-0.0005324,-0.0020164
1.5200000,1.5200000,1.5200000,-0.0007494,0.0000868,-0.0562269,-0.0007494,-0.0005267,-0.0019973
1.5225000,1.5225000,1.5225000,-0.0007420,0.0000863,-0.0559481,-0.0007420,-0.0005210,-0.0019784
1.5250000,1.5250000,1.5250000,-0.0007346,0.0000859,-0.0556712,-0.0007346,-0.0005153,-0.0019598
1.5275000,1.5275000,1.5275000,-0.0007273,0.0000855,-0.0553961,-0.0007273,-0.0005098,-0.0019414
1.5300000,1.5300000,1.5300000,-0.0007201,0.0000850,-0.0551228,-0.0007201,-0.0005043,-0.0019232
1.5325000,1.5325000,1.5325000,-0.0007130,0.0000846,-0.0548513,-0.0007130,-0.0004988,-0.0019052
1.5350000,1.5350000,1.5350000,-0.0007060,0.0000842,-0.0545816,-0.0007060,-0.0004935,-0.0018874
1.5375000,1.5375000,1.5375000,-0.0006991,0.0000838,-0.0543136,-0.0006991,-0.0004882,-0.0018698
1.5400000,1.5400000,1.5400000,-0.0006922,0.0000833,-0.0540474,-0.0006922,-0.0004829,-0.0018523
1.5425000,1.5425000,1.5425000,-0.0006854,0.0000829,-0.0537830,-0.0006854,-0.0004777,-0.0018351
1.5450000,1.5450000,1.5450000,-0.0006787,0.0000825,-0.0535203,-0.0006787,-0.0004726,-0.0018181
1.5475000,1.5475000,1.5475000,-0.0006721,0.0000821,-0.0532592,-0.0006721,-0.0004676,-0.0018013
1.5500000,1.5500000,1.5500000,-0.0006655,0.0000817,-0.0529999,-0.0006655,-0.0004626,-0.0017846
1.5525000,1.5525000,1.5525000,-0.0006590,0.0000813,-0.0527423,-0.0006590,-0.0004576,-0.0017682
1.5550000,1.5550000,1.5550000,-0.0006526,0.0000809,-0.0524863,-0.0006526,-0.0004527,-0.0017519
1.5575000,1.5575000,1.5575000,-0.0006463,0.0000805,-0.0522320,-0.0006463,-0.0004479,-0.0017358
1.5600000,1.5600000,1.5600000,-0.0006400,0.0000801,-0.0519794,-0.0006400,-0.0004431,-0.0017198
1.5625000,1.5625000,1.5625000,-0.0006338,0.0000797,-0.0517283,-0.0006338,-0.0004384,-0.0017041
1.5650000,1.5650000,1.5650000,-0.0006277,0.0000793,-0.0514789,-0.0006277,-0.0004338,-0.0016885
1.5675000,1.5675000,1.5675000,-0.0006216,0.0000789,-0.0512311,-0.0006216,-0.0004292,-0.0016731
1.5700000,1.5700000,1.5700000,-0.0006157,0.0000786,-0.0509849,-0.0006157,-0.0004246,-0.0016579
1.5725000,1.5725000,1.5725000,-0.0006097,0.0000782,-0.0507402,-0.0006097,-0.0004201,-0.0016428
1.5750000,1.5750000,1.5750000,-0.0006039,0.0000778,-0.0504972,-0.0006039,-0.0004157,-0.0016279
1.5775000,1.5775000,1.5775000,-0.0005981,0.0000774,-0.0502556,-0.0005981,-0.0004113,-0.0016132
1.5800000,1.5800000,1.5800000,-0.0005924,0.0000770,-0.0500157,-0.0005924,-0.0004069,-0.0015986
1.5825000,1.5825000,1.5825000,-0.0005867,0.0000767,-0.0497772,-0.0005867,-0.0004026,-0.0015842
1.5850000,1.5850000,1.5850000,-0.0005811,0.0000763,-0.0495403,-0.0005811,-0.0003984,-0.0015699
1.5875000,1.5875000,1.5875000,-0.0005756,0.0000759,-0.0493048,-0.0005756,-0.0003942,-0.0015558
1.5900000,1.5900000,1.5900000,-0.0005701,0.0000756,-0.0490709,-0.0005701,-0.0003900,-0.0015418
1.5925000,1.5925000,1.5925000,-0.0005647,0.0000752,-0.0488384,-0.0005647,-0.0003859,-0.0015280
1.5950000,1.5950000,1.5950000,-0.0005594,0.0000748,-0.0486074,-0.0005594,-0.0003819,-0.0015144
1.5975000,1.5975000,1.5975000,-0.0005541,0.0000745,-0.0483779,-0.0005541,-0.0003779,-0.0015008
