# r[nm],d[nm],daligned[nm],UWater(d)[kj/mol]
0.8800000,0.1300000,0.1046592,1477.1152191
0.8900000,0.1400000,0.1146592,985.8636560
0.9000000,0.1500000,0.1246592,650.5199624
0.9100000,0.1600000,0.1346592,423.5571445
0.9200000,0.1700000,0.1446592,276.9820260
0.9300000,0.1800000,0.1546592,182.0296851
0.9400000,0.1900000,0.1646592,120.2557992
0.9500000,0.2000000,0.1746592,79.6302408
0.9600000,0.2100000,0.1846592,52.5607131
0.9700000,0.2200000,0.1946592,34.3622836
0.9800000,0.2300000,0.2046592,21.8999551
0.9900000,0.2400000,0.2146592,13.1135093
1.0000000,0.2500000,0.2246592,6.8359775
1.0100000,0.2600000,0.2346592,2.3703250
1.0200000,0.2700000,0.2446592,-0.7874174
1.0300000,0.2800000,0.2546592,-2.9772762
1.0400000,0.2900000,0.2646592,-4.4247148
1.0500000,0.3000000,0.2746592,-5.3134860
1.0600000,0.3100000,0.2846592,-5.7979133
1.0700000,0.3200000,0.2946592,-5.9916616
1.0800000,0.3300000,0.3046592,-5.9742543
1.0900000,0.3400000,0.3146592,-5.8071874
1.1000000,0.3500000,0.3246592,-5.5417144
1.1100000,0.3600000,0.3346592,-5.2192163
1.1200000,0.3700000,0.3446592,-4.8708473
1.1300000,0.3800000,0.3546592,-4.5184818
1.1400000,0.3900000,0.3646592,-4.1762585
1.1500000,0.4000000,0.3746592,-3.8521243
1.1600000,0.4100000,0.3846592,-3.5494321
1.1700000,0.4200000,0.3946592,-3.2687653
1.1800000,0.4300000,0.4046592,-3.0097197
1.1900000,0.4400000,0.4146592,-2.7720525
1.2000000,0.4500000,0.4246592,-2.5559516
1.2100000,0.4600000,0.4346592,-2.3615488
1.2200000,0.4700000,0.4446592,-2.1882174
1.2300000,0.4800000,0.4546592,-2.0342852
1.2400000,0.4900000,0.4646592,-1.8975372
1.2500000,0.5000000,0.4746592,-1.7759359
1.2600000,0.5100000,0.4846592,-1.6673024
1.2700000,0.5200000,0.4946592,-1.5690189
1.2800000,0.5300000,0.5046592,-1.4781538
1.2900000,0.5400000,0.5146592,-1.3913452
1.3000000,0.5500000,0.5246592,-1.3061117
1.3100000,0.5600000,0.5346592,-1.2220248
1.3200000,0.5700000,0.5446592,-1.1401058
1.3300000,0.5800000,0.5546592,-1.0616777
1.3400000,0.5900000,0.5646592,-0.9877207
1.3500000,0.6000000,0.5746592,-0.9187382
1.3600000,0.6100000,0.5846592,-0.8548493
1.3700000,0.6200000,0.5946592,-0.7959248
1.3800000,0.6300000,0.6046592,-0.7416973
1.3900000,0.6400000,0.6146592,-0.6918356
1.4000000,0.6500000,0.6246592,-0.6459891
1.4100000,0.6600000,0.6346592,-0.6038134
1.4200000,0.6700000,0.6446592,-0.5649823
1.4300000,0.6800000,0.6546592,-0.5291944
1.4400000,0.6900000,0.6646592,-0.4961741
1.4500000,0.7000000,0.6746592,-0.4656717
1.4600000,0.7100000,0.6846592,-0.4374617
1.4700000,0.7200000,0.6946592,-0.4113410
1.4800000,0.7300000,0.7046592,-0.3871264
1.4900000,0.7400000,0.7146592,-0.3646533
1.5000000,0.7500000,0.7246592,-0.3437733
1.5100000,0.7600000,0.7346592,-0.3243523
1.5200000,0.7700000,0.7446592,-0.3062696
1.5300000,0.7800000,0.7546592,-0.2894156
1.5400000,0.7900000,0.7646592,-0.2736916
1.5500000,0.8000000,0.7746592,-0.2590076
1.5600000,0.8100000,0.7846592,-0.2452822
1.5700000,0.8200000,0.7946592,-0.2324414
1.5800000,0.8300000,0.8046592,-0.2204176
1.5900000,0.8400000,0.8146592,-0.2091494
1.6000000,0.8500000,0.8246592,-0.1985806
1.6100000,0.8600000,0.8346592,-0.1886599
1.6200000,0.8700000,0.8446592,-0.1793404
1.6300000,0.8800000,0.8546592,-0.1705790
1.6400000,0.8900000,0.8646592,-0.1623364
1.6500000,0.9000000,0.8746592,-0.1545762
1.6600000,0.9100000,0.8846592,-0.1472652
1.6700000,0.9200000,0.8946592,-0.1403727
1.6800000,0.9300000,0.9046592,-0.1338704
1.6900000,0.9400000,0.9146592,-0.1277324
1.7000000,0.9500000,0.9246592,-0.1219346
1.7100000,0.9600000,0.9346592,-0.1164548
1.7200000,0.9700000,0.9446592,-0.1112725
1.7300000,0.9800000,0.9546592,-0.1063687
1.7400000,0.9900000,0.9646592,-0.1017257
1.7500000,1.0000000,0.9746592,-0.0973272
1.7600000,1.0100000,0.9846592,-0.0931582
1.7700000,1.0200000,0.9946592,-0.0892045
1.7800000,1.0300000,1.0046592,-0.0854531
1.7900000,1.0400000,1.0146592,-0.0818917
1.8000000,1.0500000,1.0246592,-0.0785092
1.8100000,1.0600000,1.0346592,-0.0752949
1.8200000,1.0700000,1.0446592,-0.0722390
1.8300000,1.0800000,1.0546592,-0.0693324
1.8400000,1.0900000,1.0646592,-0.0665665
1.8500000,1.1000000,1.0746592,-0.0639332
1.8600000,1.1100000,1.0846592,-0.0614253
1.8700000,1.1200000,1.0946592,-0.0590356
1.8800000,1.1300000,1.1046592,-0.0567575
1.8900000,1.1400000,1.1146592,-0.0545851
1.9000000,1.1500000,1.1246592,-0.0525126
1.9100000,1.1600000,1.1346592,-0.0505345
1.9200000,1.1700000,1.1446592,-0.0486458
1.9300000,1.1800000,1.1546592,-0.0468419
1.9400000,1.1900000,1.1646592,-0.0451182
1.9500000,1.2000000,1.1746592,-0.0434705
1.9600000,1.2100000,1.1846592,-0.0418950
1.9700000,1.2200000,1.1946592,-0.0403879
1.9800000,1.2300000,1.2046592,-0.0389458
1.9900000,1.2400000,1.2146592,-0.0375653
2.0000000,1.2500000,1.2246592,-0.0362434
2.0100000,1.2600000,1.2346592,-0.0349773
2.0200000,1.2700000,1.2446592,-0.0337640
2.0300000,1.2800000,1.2546592,-0.0326012
2.0400000,1.2900000,1.2646592,-0.0314862
2.0500000,1.3000000,1.2746592,-0.0304168
2.0600000,1.3100000,1.2846592,-0.0293909
2.0700000,1.3200000,1.2946592,-0.0284063
2.0800000,1.3300000,1.3046592,-0.0274611
2.0900000,1.3400000,1.3146592,-0.0265535
2.1000000,1.3500000,1.3246592,-0.0256818
2.1100000,1.3600000,1.3346592,-0.0248442
2.1200000,1.3700000,1.3446592,-0.0240392
2.1300000,1.3800000,1.3546592,-0.0232653
2.1400000,1.3900000,1.3646592,-0.0225211
2.1500000,1.4000000,1.3746592,-0.0218054
2.1600000,1.4100000,1.3846592,-0.0211168
2.1700000,1.4200000,1.3946592,-0.0204541
2.1800000,1.4300000,1.4046592,-0.0198161
2.1900000,1.4400000,1.4146592,-0.0192019
2.2000000,1.4500000,1.4246592,-0.0186104
2.2100000,1.4600000,1.4346592,-0.0180406
2.2200000,1.4700000,1.4446592,-0.0174915
2.2300000,1.4800000,1.4546592,-0.0169624
2.2400000,1.4900000,1.4646592,-0.0164523
2.2500000,1.5000000,1.4746592,-0.0159604
2.2600000,1.5100000,1.4846592,-0.0154860
2.2700000,1.5200000,1.4946592,-0.0150285
2.2800000,1.5300000,1.5046592,-0.0145869
2.2900000,1.5400000,1.5146592,-0.0141608
2.3000000,1.5500000,1.5246592,-0.0137495
2.3100000,1.5600000,1.5346592,-0.0133524
2.3200000,1.5700000,1.5446592,-0.0129689
2.3300000,1.5800000,1.5546592,-0.0125985
2.3400000,1.5900000,1.5646592,-0.0122406
2.3500000,1.6000000,1.5746592,-0.0118949
2.3600000,1.6100000,1.5846592,-0.0115607
2.3700000,1.6200000,1.5946592,-0.0112376
2.3800000,1.6300000,1.6046592,-0.0109253
2.3900000,1.6400000,1.6146592,-0.0106232
2.4000000,1.6500000,1.6246592,-0.0103311
2.4100000,1.6600000,1.6346592,-0.0100484
2.4200000,1.6700000,1.6446592,-0.0097750
2.4300000,1.6800000,1.6546592,-0.0095103
2.4400000,1.6900000,1.6646592,-0.0092542
2.4500000,1.7000000,1.6746592,-0.0090062
2.4600000,1.7100000,1.6846592,-0.0087661
2.4700000,1.7200000,1.6946592,-0.0085335
2.4800000,1.7300000,1.7046592,-0.0083083
2.4900000,1.7400000,1.7146592,-0.0080901
2.5000000,1.7500000,1.7246592,-0.0078786
2.5100000,1.7600000,1.7346592,-0.0076737
2.5200000,1.7700000,1.7446592,-0.0074752
2.5300000,1.7800000,1.7546592,-0.0072826
2.5400000,1.7900000,1.7646592,-0.0070960
2.5500000,1.8000000,1.7746592,-0.0069150
2.5600000,1.8100000,1.7846592,-0.0067394
2.5700000,1.8200000,1.7946592,-0.0065691
2.5800000,1.8300000,1.8046592,-0.0064039
2.5900000,1.8400000,1.8146592,-0.0062436
2.6000000,1.8500000,1.8246592,-0.0060881
2.6100000,1.8600000,1.8346592,-0.0059371
2.6200000,1.8700000,1.8446592,-0.0057905
2.6300000,1.8800000,1.8546592,-0.0056482
2.6400000,1.8900000,1.8646592,-0.0055100
2.6500000,1.9000000,1.8746592,-0.0053758
2.6600000,1.9100000,1.8846592,-0.0052455
2.6700000,1.9200000,1.8946592,-0.0051189
2.6800000,1.9300000,1.9046592,-0.0049958
2.6900000,1.9400000,1.9146592,-0.0048763
2.7000000,1.9500000,1.9246592,-0.0047601
2.7100000,1.9600000,1.9346592,-0.0046472
2.7200000,1.9700000,1.9446592,-0.0045375
2.7300000,1.9800000,1.9546592,-0.0044308
2.7400000,1.9900000,1.9646592,-0.0043270
